time (s)	coil I (A)	last det (V)	int current (uC)
7410.003406	0.855095	0.463936	376.241882
7410.004299	0.606870	0.463936	918.176880
7410.005276	0.094750	0.463936	1010.747375
7410.006207	0.088813	0.463936	1093.432739
7410.007118	0.088909	0.463936	1174.428589
7410.008003	0.089008	0.463936	1253.200317
7410.008953	0.088898	0.463936	1337.653076
7410.009878	0.088975	0.463936	1419.954590
7410.010786	0.088978	0.463936	1500.746826
7410.011695	0.088828	0.463936	1581.491577
7410.012624	0.088934	0.463936	1664.111572
7410.013563	0.088934	0.463936	1747.620850
7410.982852	0.852810	0.412579	370.119537
7410.983830	0.524308	0.412579	882.892578
7410.984738	0.093820	0.412579	968.080750
7410.985662	0.088982	0.412579	1050.300049
7410.986553	0.089084	0.412579	1129.674316
7410.987500	0.088956	0.412579	1213.915894
7410.988394	0.088997	0.412579	1293.478882
7410.989286	0.089139	0.412579	1372.991211
7410.990218	0.089055	0.412579	1455.990601
7410.991108	0.088953	0.412579	1535.158447
7410.992032	0.089015	0.412579	1617.408203
7410.992929	0.089015	0.412579	1697.254517
7412.001230	0.853711	0.440249	373.925385
7412.002124	0.601479	0.440249	911.648071
7412.003089	0.094329	0.440249	1002.675171
7412.003998	0.088912	0.440249	1083.496460
7412.004895	0.088986	0.440249	1163.316528
7412.005829	0.089026	0.440249	1246.466675
7412.006727	0.089059	0.440249	1326.441528
7412.007626	0.088945	0.440249	1406.403320
7412.008511	0.088964	0.440249	1485.136108
7412.009452	0.089088	0.440249	1568.968018
7412.010359	0.089015	0.440249	1649.704468
7412.011266	0.088894	0.440249	1730.331299
7412.978640	0.855681	0.432954	376.499695
7412.979539	0.605614	0.432954	920.946716
7412.980489	0.096475	0.432954	1012.597595
7412.981394	0.088865	0.432954	1093.020142
7412.982305	0.089000	0.432954	1174.099365
7412.983203	0.088986	0.432954	1254.008423
7412.984150	0.088975	0.432954	1338.267334
7412.985072	0.088982	0.432954	1420.308716
7412.985996	0.089008	0.432954	1502.551758
7412.986888	0.088986	0.432954	1581.926880
7412.987835	0.088986	0.432954	1666.196289
7412.988757	0.088982	0.432954	1748.237671
7414.053849	0.865276	0.441297	389.374146
7414.054748	0.593591	0.441297	923.012756
7414.055711	0.096094	0.441297	1015.551025
7414.056620	0.088975	0.441297	1096.428955
7414.057511	0.089019	0.441297	1175.744507
7414.058404	0.088997	0.441297	1255.218506
7414.059339	0.089015	0.441297	1338.447388
7414.060240	0.088916	0.441297	1418.560669
7414.061144	0.089019	0.441297	1499.033447
7414.062037	0.089000	0.441297	1578.510620
7414.062979	0.089037	0.441297	1662.383301
7414.063885	0.088927	0.441297	1742.951172
7414.989254	0.847518	0.397722	366.975403
7414.990198	0.580873	0.397722	915.319275
7414.991119	0.094222	0.397722	1002.098145
7414.992041	0.088894	0.397722	1084.058472
7414.992935	0.088993	0.397722	1163.618164
7414.993892	0.088967	0.397722	1248.759888
7414.994788	0.088945	0.397722	1328.454834
7414.995708	0.088949	0.397722	1410.287842
7414.996596	0.088967	0.397722	1489.290771
7414.997558	0.089019	0.397722	1574.926636
7414.998464	0.088967	0.397722	1655.531006
7414.999360	0.088938	0.397722	1735.219482
7416.034257	0.857498	0.449361	379.871429
7416.035151	0.587703	0.449361	905.277588
7416.036106	0.094937	0.449361	995.941956
7416.037011	0.088960	0.449361	1076.450684
7416.037910	0.089183	0.449361	1156.626465
7416.038843	0.089139	0.449361	1239.793579
7416.039756	0.089202	0.449361	1321.234741
7416.040661	0.089055	0.449361	1401.829712
7416.041548	0.089103	0.449361	1480.863892
7416.042489	0.089121	0.449361	1564.726807
7416.043393	0.089136	0.449361	1645.305542
7416.044295	0.089114	0.449361	1725.686157
7417.014741	0.859032	0.494974	384.846313
7417.015645	0.591599	0.494974	919.651917
7417.016588	0.096650	0.494974	1010.793213
7417.017494	0.089084	0.494974	1091.503784
7417.018413	0.089059	0.494974	1173.348877
7417.019301	0.089176	0.494974	1252.537231
7417.020235	0.089048	0.494974	1335.707886
7417.021136	0.089139	0.494974	1416.022461
7417.022057	0.089128	0.494974	1498.109741
7417.022959	0.089114	0.494974	1578.490356
7417.023905	0.089044	0.494974	1662.726196
7417.024828	0.089106	0.494974	1744.971436
7418.087876	0.852081	0.435709	369.803284
7418.088847	0.531240	0.435709	885.637512
7418.089754	0.094182	0.435709	971.060669
7418.090662	0.088997	0.435709	1051.869629
7418.091549	0.089055	0.435709	1130.861572
7418.092515	0.089103	0.435709	1216.934814
7418.093418	0.089000	0.435709	1297.302002
7418.094310	0.089019	0.435709	1376.706543
7418.095253	0.089033	0.435709	1460.664795
7418.096150	0.089106	0.435709	1540.593262
7418.097044	0.088960	0.435709	1620.123413
7418.097932	0.088960	0.435709	1699.119873
7419.033568	0.876101	0.420929	397.749878
7419.034475	0.579855	0.420929	923.678101
7419.035363	0.096321	0.420929	1009.210937
7419.036324	0.088956	0.420929	1094.697998
7419.037230	0.089066	0.420929	1175.391968
7419.038149	0.089011	0.420929	1257.193237
7419.039042	0.089055	0.420929	1336.719482
7419.039990	0.089004	0.420929	1421.095215
7419.040880	0.088978	0.420929	1500.285889
7419.041791	0.089019	0.420929	1581.381836
7419.042686	0.089019	0.420929	1661.053467
7419.043640	0.089008	0.420929	1745.966675
7420.069329	0.859080	0.423274	378.854095
7420.070235	0.599923	0.423274	922.384399
7420.071122	0.097072	0.423274	1008.486877
7420.072072	0.088986	0.423274	1093.023193
7420.072976	0.088938	0.423274	1173.423096
7420.073883	0.089033	0.423274	1254.176270
7420.074774	0.088898	0.423274	1333.384155
7420.075715	0.089048	0.423274	1417.178223
7420.076627	0.088923	0.423274	1498.276367
7420.077521	0.088945	0.423274	1577.793457
7420.078456	0.089026	0.423274	1661.032715
7420.079361	0.088993	0.423274	1741.571289
7421.050328	0.861764	0.469668	386.070221
7421.051229	0.590416	0.469668	918.035278
7421.052176	0.095757	0.469668	1008.716980
7421.053080	0.088901	0.469668	1089.083862
7421.053976	0.088956	0.469668	1168.788696
7421.054868	0.088949	0.469668	1248.131226
7421.055821	0.088953	0.469668	1332.903076
7421.056717	0.088964	0.469668	1412.614502
7421.057635	0.088989	0.469668	1494.306641
7421.058532	0.088975	0.469668	1574.116821
7421.059466	0.088986	0.469668	1657.229370
7421.060384	0.088938	0.469668	1738.874390
7422.115794	0.859530	0.470888	380.771790
7422.116686	0.601670	0.470888	917.461365
7422.117658	0.095240	0.470888	1010.035095
7422.118596	0.088883	0.470888	1093.407349
7422.119499	0.088817	0.470888	1173.609253
7422.120414	0.088901	0.470888	1254.953979
7422.121345	0.088960	0.470888	1337.775757
7422.122273	0.088912	0.470888	1420.286377
7422.123173	0.088993	0.470888	1500.380005
7422.124095	0.088927	0.470888	1582.370728
7422.125030	0.088978	0.470888	1665.565430
7422.125969	0.089008	0.470888	1749.143555
7423.070673	0.857402	0.404151	378.971863
7423.071570	0.592972	0.404151	910.868103
7423.072504	0.095325	0.404151	999.901367
7423.073418	0.088806	0.404151	1081.070190
7423.074306	0.088945	0.404151	1160.053589
7423.075243	0.089019	0.404151	1243.463989
7423.076164	0.088993	0.404151	1325.426514
7423.077064	0.088945	0.404151	1405.477295
7423.077951	0.088964	0.404151	1484.388062
7423.078891	0.089030	0.404151	1568.075806
7423.079801	0.088986	0.404151	1649.052734
7423.080698	0.089022	0.404151	1728.905640
7424.102853	0.848701	0.446557	368.336304
7424.103791	0.564243	0.446557	897.596375
7424.104731	0.094036	0.446557	985.989868
7424.105648	0.088846	0.446557	1067.462036
7424.106539	0.088960	0.446557	1146.725342
7424.107483	0.088975	0.446557	1230.717407
7424.108419	0.088876	0.446557	1313.905029
7424.109319	0.088942	0.446557	1393.952515
7424.110244	0.088956	0.446557	1476.237061
7424.111170	0.088839	0.446557	1558.502075
7424.112085	0.089004	0.446557	1639.940674
7424.112982	0.088923	0.446557	1719.704956
7425.066956	0.851235	0.482369	370.287354
7425.067905	0.570513	0.482369	911.703918
7425.068821	0.094351	0.482369	998.129028
7425.069725	0.088781	0.482369	1078.386597
7425.070617	0.088835	0.482369	1157.627808
7425.071572	0.088971	0.482369	1242.595093
7425.072479	0.088967	0.482369	1323.288452
7425.073382	0.088938	0.482369	1403.599487
7425.074271	0.088894	0.482369	1482.626343
7425.075215	0.088934	0.482369	1566.580322
7425.076115	0.088854	0.482369	1646.548706
7425.077012	0.088854	0.482369	1726.250488
7426.149322	0.849558	0.447867	368.708221
7426.150274	0.547764	0.447867	890.179199
7426.151216	0.094036	0.447867	978.760803
7426.152136	0.088898	0.447867	1060.546631
7426.153025	0.088931	0.447867	1139.605957
7426.153971	0.088799	0.447867	1223.609619
7426.154904	0.088934	0.447867	1306.585327
7426.155808	0.088927	0.447867	1386.975342
7426.156728	0.088898	0.447867	1468.761230
7426.157666	0.088931	0.447867	1552.178223
7426.158580	0.088887	0.447867	1633.420654
7426.159474	0.088887	0.447867	1712.885376
7427.114963	0.874080	0.437868	390.713562
7427.115945	0.496011	0.437868	877.796082
7427.116847	0.093380	0.437868	962.024963
7427.117740	0.088916	0.437868	1041.427002
7427.118672	0.088986	0.437868	1124.361572
7427.119586	0.088964	0.437868	1205.674316
7427.120500	0.088949	0.437868	1286.973633
7427.121386	0.089015	0.437868	1365.840820
7427.122333	0.089062	0.437868	1450.182983
7427.123231	0.088887	0.437868	1530.003296
7427.124114	0.089044	0.437868	1608.629272
7427.125033	0.088931	0.437868	1690.356567
7428.145112	0.869136	0.414774	390.241943
7428.146017	0.588669	0.414774	922.987793
7428.146904	0.096669	0.414774	1008.732910
7428.147859	0.088821	0.414774	1093.556763
7428.148758	0.088901	0.414774	1173.479126
7428.149651	0.088839	0.414774	1252.812500
7428.150538	0.088879	0.414774	1331.648560
7428.151488	0.088905	0.414774	1416.108398
7428.152402	0.088846	0.414774	1497.314087
7428.153304	0.088887	0.414774	1577.489868
7428.154232	0.088894	0.414774	1659.983521
7428.155128	0.088923	0.414774	1739.658813
7429.102549	0.865269	0.471102	385.909760
7429.103457	0.587615	0.471102	919.463867
7429.104347	0.096332	0.471102	1005.199158
7429.105295	0.088876	0.471102	1089.453369
7429.106211	0.088846	0.471102	1170.836670
7429.107132	0.088850	0.471102	1252.667603
7429.108021	0.088883	0.471102	1331.684692
7429.108973	0.088839	0.471102	1416.259521
7429.109873	0.088850	0.471102	1496.224609
7429.110758	0.088967	0.471102	1574.960693
7429.111683	0.088953	0.471102	1657.241943
7429.112589	0.088883	0.471102	1737.770020
7430.175713	0.872197	0.481503	395.977570
7430.176609	0.587161	0.481503	922.073486
7430.177564	0.095039	0.481503	1012.835815
7430.178469	0.088802	0.481503	1093.202026
7430.179366	0.088953	0.481503	1172.992554
7430.180258	0.088898	0.481503	1252.289307
7430.181202	0.088989	0.481503	1336.295166
7430.182108	0.088909	0.481503	1416.846436
7430.183012	0.088971	0.481503	1497.276123
7430.183939	0.088982	0.481503	1579.762329
7430.184836	0.088923	0.481503	1659.526611
7430.185753	0.088879	0.481503	1741.029053
7431.145954	0.878987	0.440177	403.454956
7431.146891	0.534543	0.440177	904.322144
7431.147783	0.094849	0.440177	988.927124
7431.148735	0.088861	0.440177	1073.522827
7431.149630	0.088956	0.440177	1153.138672
7431.150518	0.088953	0.440177	1232.128662
7431.151451	0.089019	0.440177	1315.182983
7431.152360	0.088909	0.440177	1396.000977
7431.153274	0.088898	0.440177	1477.253418
7431.154167	0.088978	0.440177	1556.711060
7431.155121	0.088993	0.440177	1641.610352
7431.156029	0.088997	0.440177	1722.419189
7432.170970	0.860438	0.454131	382.034576
7432.171874	0.588615	0.454131	914.142090
7432.172800	0.096083	0.454131	1003.114746
7432.173740	0.088777	0.454131	1086.564941
7432.174653	0.088887	0.454131	1167.718506
7432.175549	0.088971	0.454131	1247.436523
7432.176466	0.088857	0.454131	1328.918823
7432.177407	0.088887	0.454131	1412.561279
7432.178326	0.088883	0.454131	1494.244873
7432.179216	0.088960	0.454131	1573.419189
7432.180146	0.088901	0.454131	1656.097412
7432.181068	0.088839	0.454131	1738.007080
7433.140168	0.849016	0.474035	371.020020
7433.141129	0.535107	0.474035	885.258240
7433.142047	0.094047	0.474035	971.593018
7433.142951	0.088821	0.474035	1051.886963
7433.143840	0.088949	0.474035	1130.962646
7433.144788	0.089059	0.474035	1215.390381
7433.145703	0.088865	0.474035	1296.701660
7433.146589	0.088945	0.474035	1375.507202
7433.147529	0.088949	0.474035	1459.119263
7433.148435	0.088964	0.474035	1539.720337
7433.149325	0.088934	0.474035	1618.871826
7433.150209	0.088894	0.474035	1697.454102
7434.220026	0.880649	0.431911	424.472992
7434.220938	0.538506	0.431911	915.590332
7434.221830	0.094662	0.431911	1000.028687
7434.222758	0.088810	0.431911	1082.444214
7434.223701	0.088857	0.431911	1166.236816
7434.224619	0.088854	0.431911	1247.804565
7434.225510	0.088872	0.431911	1326.989624
7434.226460	0.088931	0.431911	1411.473755
7434.227390	0.088920	0.431911	1494.169067
7434.228290	0.088964	0.431911	1574.236328
7434.229203	0.088901	0.431911	1655.403320
7434.230143	0.088931	0.431911	1738.998169
7435.157982	0.866470	0.435697	388.178436
7435.158889	0.580876	0.435697	915.033447
7435.159782	0.096035	0.435697	1000.792847
7435.160724	0.088901	0.435697	1084.537964
7435.161642	0.088942	0.435697	1166.186401
7435.162548	0.088931	0.435697	1246.757568
7435.163437	0.088792	0.435697	1325.693237
7435.164389	0.089019	0.435697	1410.438965
7435.165290	0.088872	0.435697	1490.512695
7435.166207	0.088876	0.435697	1572.011719
7435.167110	0.088887	0.435697	1652.276367
7435.168037	0.088956	0.435697	1734.738892
7436.206564	0.891632	0.469032	410.150757
7436.207535	0.491422	0.469032	887.321594
7436.208451	0.092944	0.469032	972.458618
7436.209345	0.088865	0.469032	1051.903687
7436.210294	0.089015	0.469032	1136.378784
7436.211200	0.089011	0.469032	1217.022949
7436.212102	0.088927	0.469032	1297.235107
7436.212991	0.088920	0.469032	1376.284668
7436.213938	0.088923	0.469032	1460.495117
7436.214848	0.088912	0.469032	1541.405396
7436.215741	0.088865	0.469032	1620.761597
7436.216669	0.088993	0.469032	1703.347046
7437.197817	0.870897	0.467654	420.643372
7437.198729	0.532705	0.467654	906.470398
7437.199652	0.093721	0.467654	992.974609
7437.200544	0.088890	0.467654	1072.264893
7437.201481	0.088879	0.467654	1155.544922
7437.202408	0.088894	0.467654	1237.949707
7437.203323	0.088934	0.467654	1319.324585
7437.204213	0.088938	0.467654	1398.479370
7437.205162	0.088938	0.467654	1482.881470
7437.206080	0.088879	0.467654	1564.472778
7437.206971	0.088894	0.467654	1643.677368
7437.207888	0.088901	0.467654	1725.199951
7438.237144	0.864661	0.423008	383.044647
7438.238072	0.568198	0.423008	910.332642
7438.238974	0.095204	0.423008	996.206543
7438.239894	0.088850	0.423008	1077.948608
7438.240792	0.088975	0.423008	1157.847778
7438.241687	0.088850	0.423008	1237.368652
7438.242574	0.088931	0.423008	1316.250122
7438.243524	0.088964	0.423008	1400.765625
7438.244420	0.089022	0.423008	1480.529541
7438.245324	0.088956	0.423008	1560.946045
7438.246213	0.088942	0.423008	1640.015137
7438.247156	0.089030	0.423008	1723.969971
7439.186427	0.895107	0.473016	431.441803
7439.187331	0.545431	0.473016	924.511353
7439.188256	0.094398	0.473016	1011.829712
7439.189210	0.088799	0.473016	1096.543823
7439.190125	0.088887	0.473016	1177.875122
7439.191017	0.088887	0.473016	1257.162109
7439.191968	0.088813	0.473016	1341.623779
7439.192902	0.088839	0.473016	1424.599487
7439.193801	0.088879	0.473016	1504.502075
7439.194717	0.088887	0.473016	1585.922363
7439.195660	0.088894	0.473016	1669.749390
7439.196576	0.088876	0.473016	1751.159546
7440.267234	0.877614	0.446308	399.314148
7440.268142	0.574080	0.446308	920.578430
7440.269043	0.095413	0.446308	1006.545166
7440.269970	0.088854	0.446308	1088.912598
7440.270898	0.088982	0.446308	1171.487793
7440.271806	0.088971	0.446308	1252.273437
7440.272701	0.088978	0.446308	1331.908936
7440.273642	0.088982	0.446308	1415.640991
7440.274546	0.088927	0.446308	1496.031006
7440.275440	0.089000	0.446308	1575.597168
7440.276328	0.088964	0.446308	1654.596924
7440.277262	0.089059	0.446308	1737.777832
7441.203665	0.855850	0.453208	379.141388
7441.204561	0.594364	0.453208	911.691528
7441.205536	0.094567	0.453208	1003.894043
7441.206462	0.088821	0.453208	1086.142090
7441.207352	0.088956	0.453208	1165.313232
7441.208276	0.088865	0.453208	1247.424316
7441.209208	0.088923	0.453208	1330.300903
7441.210122	0.088901	0.453208	1411.556763
7441.211015	0.088923	0.453208	1490.965332
7441.211952	0.088905	0.453208	1574.269287
7441.212898	0.088942	0.453208	1658.408081
7441.213802	0.088927	0.453208	1738.798096
7442.271205	0.874874	0.467412	398.067810
7442.272106	0.583590	0.467412	923.882507
7442.272991	0.096530	0.467412	1009.311157
7442.273935	0.088861	0.467412	1093.196045
7442.274840	0.088810	0.467412	1173.568970
7442.275753	0.088850	0.467412	1254.689087
7442.276649	0.088857	0.467412	1334.305298
7442.277602	0.089011	0.467412	1419.133057
7442.278506	0.088887	0.467412	1499.486694
7442.279395	0.088978	0.467412	1578.588379
7442.280326	0.089030	0.467412	1661.474854
7442.281229	0.088883	0.467412	1741.736206
7443.237321	0.853356	0.447907	372.063080
7443.238271	0.548207	0.447907	892.859497
7443.239226	0.093596	0.447907	982.243835
7443.240150	0.088781	0.447907	1064.276978
7443.241037	0.088956	0.447907	1143.181152
7443.241979	0.088901	0.447907	1226.926270
7443.242916	0.088894	0.447907	1310.219971
7443.243837	0.088876	0.447907	1392.074463
7443.244732	0.088916	0.447907	1471.654297
7443.245679	0.088923	0.447907	1555.864746
7443.246616	0.088898	0.447907	1639.161865
7443.247512	0.088942	0.447907	1718.853638
7444.277221	0.883074	0.470880	401.798553
7444.278136	0.554037	0.470880	908.742310
7444.279067	0.094244	0.470880	996.483826
7444.279963	0.088927	0.470880	1076.162354
7444.280914	0.088971	0.470880	1160.773682
7444.281811	0.088927	0.470880	1240.541260
7444.282704	0.089015	0.470880	1320.031494
7444.283634	0.089022	0.470880	1402.822144
7444.284540	0.088989	0.470880	1483.446411
7444.285460	0.089015	0.470880	1565.340088
7444.286358	0.089019	0.470880	1645.278809
7444.287306	0.089092	0.470880	1729.737793
7445.261262	0.867803	0.456008	383.568817
7445.262239	0.508374	0.456008	880.250244
7445.263164	0.093226	0.456008	966.484619
7445.264053	0.088898	0.456008	1045.514648
7445.264984	0.088964	0.456008	1128.339844
7445.265915	0.088887	0.456008	1211.093384
7445.266851	0.088901	0.456008	1294.305054
7445.267750	0.089000	0.456008	1374.316284
7445.268674	0.088901	0.456008	1456.461182
7445.269619	0.088920	0.456008	1540.490234
7445.270543	0.088986	0.456008	1622.712891
7445.271431	0.088971	0.456008	1701.719116
7446.289865	0.855216	0.470748	375.439850
7446.290842	0.501427	0.470748	865.333984
7446.291771	0.093091	0.470748	951.815369
7446.292692	0.088927	0.470748	1033.717163
7446.293583	0.088956	0.470748	1112.977173
7446.294532	0.089011	0.470748	1197.448853
7446.295452	0.088982	0.470748	1279.312256
7446.296341	0.088964	0.470748	1358.400879
7446.297278	0.088967	0.470748	1441.763184
7446.298198	0.088909	0.470748	1523.559204
7446.299108	0.088960	0.470748	1604.512817
7446.300005	0.088993	0.470748	1684.339478
7447.280097	0.872512	0.450960	392.630463
7447.280999	0.590438	0.450960	925.205811
7447.281887	0.096819	0.450960	1011.180908
7447.282843	0.088982	0.450960	1096.247681
7447.283751	0.089011	0.450960	1177.069824
7447.284644	0.088975	0.450960	1256.524170
7447.285578	0.089055	0.450960	1339.701660
7447.286483	0.089125	0.450960	1420.359619
7447.287388	0.088975	0.450960	1500.881592
7447.288286	0.089048	0.450960	1580.846558
7447.289213	0.089052	0.450960	1663.397339
7447.290116	0.088982	0.450960	1743.748047
7448.307671	0.875768	0.475860	394.095490
7448.308626	0.516035	0.475860	886.909119
7448.309560	0.093252	0.475860	974.006470
7448.310448	0.088905	0.475860	1052.954102
7448.311389	0.088938	0.475860	1136.644775
7448.312325	0.088931	0.475860	1219.883911
7448.313215	0.089037	0.475860	1299.126709
7448.314138	0.088887	0.475860	1381.169189
7448.315071	0.088942	0.475860	1464.151733
7448.315990	0.088916	0.475860	1545.865601
7448.316884	0.088850	0.475860	1625.297607
7448.317831	0.089004	0.475860	1709.584351
7449.294794	0.848976	0.449442	369.304504
7449.295732	0.594888	0.449442	927.309143
7449.296641	0.095416	0.449442	1014.042542
7449.297534	0.088894	0.449442	1093.424927
7449.298424	0.089033	0.449442	1172.664429
7449.299361	0.089019	0.449442	1256.074829
7449.300277	0.089026	0.449442	1337.622559
7449.301183	0.089008	0.449442	1418.263428
7449.302074	0.089015	0.449442	1497.575684
7449.303023	0.089037	0.449442	1582.071655
7449.303930	0.088986	0.449442	1662.781616
7449.304824	0.089030	0.449442	1742.374023
7450.327535	0.892727	0.465636	424.045349
7450.328504	0.493297	0.465636	902.050293
7450.329426	0.092893	0.465636	987.697693
7450.330318	0.088901	0.465636	1066.997681
7450.331262	0.089041	0.465636	1151.051880
7450.332193	0.088938	0.465636	1233.853149
7450.333114	0.089077	0.465636	1315.893188
7450.333999	0.088971	0.465636	1394.632446
7450.334937	0.089033	0.465636	1478.145630
7450.335879	0.089041	0.465636	1562.021851
7450.336777	0.089077	0.465636	1642.013184
7450.337695	0.089059	0.465636	1723.769165
7451.303398	0.875501	0.453998	399.228241
7451.304302	0.579573	0.453998	923.161987
7451.305186	0.096368	0.453998	1008.351685
7451.306133	0.088934	0.453998	1092.572510
7451.307040	0.089026	0.453998	1173.318970
7451.307931	0.088975	0.453998	1252.595337
7451.308837	0.088967	0.453998	1333.199707
7451.309772	0.089062	0.453998	1416.473145
7451.310672	0.089011	0.453998	1496.583252
7451.311562	0.088938	0.453998	1575.738037
7451.312507	0.089037	0.453998	1659.877930
7451.313419	0.088949	0.453998	1740.999390
7452.354551	0.898447	0.450372	433.051575
7452.355492	0.496564	0.450372	900.317993
7452.356417	0.092985	0.450372	986.328796
7452.357306	0.088997	0.450372	1065.446777
7452.358250	0.089073	0.450372	1149.532104
7452.359190	0.089073	0.450372	1233.261230
7452.360084	0.089117	0.450372	1312.932251
7452.361007	0.089037	0.450372	1395.113281
7452.361953	0.089077	0.450372	1479.380249
7452.362886	0.089066	0.450372	1562.479004
7452.363785	0.089117	0.450372	1642.595581
7452.364698	0.089077	0.450372	1723.922974
7453.307850	0.849445	0.478981	370.357819
7453.308746	0.606277	0.478981	913.581787
7453.309695	0.094812	0.478981	1003.558411
7453.310607	0.088949	0.478981	1084.679932
7453.311498	0.089008	0.478981	1163.985718
7453.312412	0.089011	0.478981	1245.342041
7453.313339	0.088916	0.478981	1327.767212
7453.314229	0.088927	0.478981	1406.912231
7453.315119	0.089062	0.478981	1486.177856
7453.316053	0.088978	0.478981	1569.283569
7453.316954	0.088997	0.478981	1649.469482
7453.317873	0.089019	0.478981	1731.277588
7454.381050	0.893998	0.444636	437.164948
7454.382016	0.483234	0.444636	903.968628
7454.382939	0.092413	0.444636	989.266113
7454.383826	0.088938	0.444636	1068.154053
7454.384767	0.088978	0.444636	1151.882568
7454.385705	0.089022	0.444636	1235.385376
7454.386605	0.089008	0.444636	1315.492187
7454.387529	0.088997	0.444636	1397.724976
7454.388458	0.088934	0.444636	1480.344971
7454.389386	0.089000	0.444636	1562.937256
7454.390281	0.089026	0.444636	1642.615479
7454.391208	0.089008	0.444636	1725.125488
7455.320533	0.857659	0.480863	381.658112
7455.321433	0.596569	0.480863	918.569824
7455.322368	0.096588	0.480863	1008.879761
7455.323270	0.088912	0.480863	1089.078735
7455.324194	0.088909	0.480863	1171.230347
7455.325081	0.089026	0.480863	1250.196289
7455.326028	0.089022	0.480863	1334.500366
7455.326925	0.089066	0.480863	1414.392700
7455.327844	0.089026	0.480863	1496.207520
7455.328735	0.089030	0.480863	1575.532837
7455.329673	0.089011	0.480863	1659.025391
7455.330577	0.088945	0.480863	1739.431885
7456.388088	0.878068	0.452133	426.740845
7456.389015	0.516079	0.452133	905.146240
7456.389913	0.094131	0.452133	989.675781
7456.390803	0.088927	0.452133	1068.820801
7456.391742	0.089037	0.452133	1152.426392
7456.392644	0.089044	0.452133	1232.744263
7456.393538	0.088986	0.452133	1312.297363
7456.394422	0.088967	0.452133	1390.944458
7456.395363	0.088982	0.452133	1474.676514
7456.396281	0.088920	0.452133	1556.304810
7456.397176	0.088953	0.452133	1635.917480
7456.398106	0.089026	0.452133	1718.711548
7457.355798	0.927499	0.463650	474.879364
7457.356713	0.495304	0.463650	928.082520
7457.357639	0.093113	0.463650	1014.304932
7457.358529	0.088894	0.463650	1093.420654
7457.359468	0.088960	0.463650	1176.954102
7457.360369	0.088982	0.463650	1257.126831
7457.361292	0.088942	0.463650	1339.219971
7457.362186	0.089022	0.463650	1418.805786
7457.363136	0.088909	0.463650	1503.269043
7457.364058	0.089022	0.463650	1585.347534
7457.364946	0.089000	0.463650	1664.379761
7457.365885	0.089052	0.463650	1747.999146
7458.387946	0.883345	0.465813	410.755280
7458.388861	0.555450	0.465813	918.992432
7458.389750	0.095548	0.465813	1003.934692
7458.390716	0.088945	0.465813	1089.855835
7458.391652	0.089030	0.465813	1173.187500
7458.392548	0.088971	0.465813	1252.905518
7458.393475	0.088967	0.465813	1335.378174
7458.394418	0.088964	0.465813	1419.270874
7458.395345	0.088861	0.465813	1501.645142
7458.396234	0.088971	0.465813	1580.740356
7458.397170	0.089011	0.465813	1664.054932
7458.398103	0.088931	0.465813	1747.027222
7459.373525	0.855267	0.452024	381.449249
7459.374417	0.607617	0.452024	923.443848
7459.375363	0.096918	0.452024	1015.127991
7459.376266	0.088832	0.452024	1095.343140
7459.377175	0.088879	0.452024	1176.134521
7459.378072	0.088953	0.452024	1255.925049
7459.379008	0.088982	0.452024	1339.212158
7459.379926	0.088953	0.452024	1420.870728
7459.380847	0.088942	0.452024	1502.786011
7459.381736	0.089004	0.452024	1581.910522
7459.382685	0.088964	0.452024	1666.337036
7459.383583	0.088953	0.452024	1746.216553
7460.420553	0.858838	0.464979	377.029846
7460.421530	0.510267	0.464979	875.561035
7460.422436	0.093984	0.464979	960.710876
7460.423332	0.089008	0.464979	1040.461670
7460.424258	0.089084	0.464979	1122.953857
7460.425159	0.089154	0.464979	1203.281616
7460.426066	0.089066	0.464979	1284.064575
7460.426958	0.089037	0.464979	1363.485474
7460.427887	0.089081	0.464979	1446.241577
7460.428791	0.089088	0.464979	1526.777222
7460.429694	0.089019	0.464979	1607.161011
7460.430585	0.088997	0.464979	1686.456909
7461.369328	0.876226	0.465511	417.083344
7461.370292	0.504492	0.465511	903.413818
7461.371213	0.092860	0.465511	988.937988
7461.372102	0.088894	0.465511	1067.964844
7461.373044	0.088989	0.465511	1151.792725
7461.373966	0.089026	0.465511	1233.874634
7461.374867	0.088927	0.465511	1313.997803
7461.375792	0.088920	0.465511	1396.248535
7461.376714	0.089015	0.465511	1478.320312
7461.377645	0.088978	0.465511	1561.159058
7461.378548	0.088912	0.465511	1641.446899
7461.379471	0.088923	0.465511	1723.523193
7462.446047	0.859113	0.451972	383.164185
7462.446950	0.598440	0.451972	923.555420
7462.447837	0.096987	0.451972	1009.583130
7462.448781	0.088953	0.451972	1093.554443
7462.449695	0.088920	0.451972	1174.827026
7462.450588	0.089019	0.451972	1254.320557
7462.451509	0.088960	0.451972	1336.252686
7462.452442	0.088989	0.451972	1419.279663
7462.453340	0.088945	0.451972	1499.152588
7462.454229	0.088986	0.451972	1578.260742
7462.455169	0.089041	0.451972	1661.958862
7462.456078	0.088942	0.451972	1742.806885
7463.401930	0.847881	0.477712	369.676056
7463.402827	0.598700	0.477712	906.709839
7463.403799	0.094567	0.477712	998.628601
7463.404736	0.088942	0.477712	1081.966919
7463.405637	0.088986	0.477712	1162.142944
7463.406559	0.088883	0.477712	1244.093140
7463.407503	0.088960	0.477712	1328.071289
7463.408424	0.089044	0.477712	1410.080933
7463.409312	0.088956	0.477712	1489.074097
7463.410261	0.089037	0.477712	1573.570068
7463.411194	0.088927	0.477712	1656.538940
7463.412093	0.089052	0.477712	1736.596191
7464.438215	0.859120	0.473031	375.435394
7464.439205	0.502134	0.473031	872.547852
7464.440132	0.092823	0.473031	958.595215
7464.441030	0.088942	0.473031	1038.464844
7464.441963	0.088953	0.473031	1121.457642
7464.442890	0.088934	0.473031	1203.899780
7464.443810	0.088971	0.473031	1285.753052
7464.444697	0.088989	0.473031	1364.686523
7464.445653	0.088931	0.473031	1449.704224
7464.446554	0.088887	0.473031	1529.791138
7464.447468	0.088887	0.473031	1611.033569
7464.448359	0.088934	0.473031	1690.274048
7465.422793	0.852400	0.483836	372.498749
7465.423755	0.576735	0.483836	927.317383
7465.424661	0.094160	0.483836	1012.626465
7465.425573	0.088916	0.483836	1093.717896
7465.426470	0.088960	0.483836	1173.515015
7465.427397	0.089000	0.483836	1256.018188
7465.428302	0.089070	0.483836	1336.626343
7465.429203	0.088997	0.483836	1416.812256
7465.430091	0.089000	0.483836	1495.844482
7465.431038	0.089022	0.483836	1580.148560
7465.431948	0.088986	0.483836	1661.125488
7465.432842	0.089033	0.483836	1740.721191
7466.476012	0.877595	0.439488	415.102539
7466.476956	0.515460	0.439488	901.696960
7466.477875	0.093373	0.439488	987.506592
7466.478763	0.088989	0.439488	1066.529053
7466.479711	0.088901	0.439488	1150.807495
7466.480644	0.089062	0.439488	1233.902832
7466.481542	0.089022	0.439488	1313.844727
7466.482468	0.088956	0.439488	1396.218262
7466.483394	0.088982	0.439488	1478.615479
7466.484308	0.089033	0.439488	1559.991821
7466.485201	0.088989	0.439488	1639.459229
7466.486137	0.089066	0.439488	1722.825195
7467.419087	0.863588	0.476460	386.023651
7467.419986	0.593383	0.476460	919.474609
7467.420932	0.095511	0.476460	1009.828491
7467.421859	0.088953	0.476460	1092.287598
7467.422766	0.089000	0.476460	1173.010864
7467.423658	0.089077	0.476460	1252.467651
7467.424597	0.089088	0.476460	1336.121460
7467.425491	0.089008	0.476460	1415.694214
7467.426379	0.089066	0.476460	1494.784912
7467.427308	0.088978	0.476460	1577.445679
7467.428229	0.089022	0.476460	1659.435181
7467.429135	0.088956	0.476460	1740.029541
7468.486084	0.848910	0.452612	367.578003
7468.487060	0.531687	0.452612	886.504517
7468.487975	0.093779	0.452612	972.312561
7468.488882	0.088960	0.452612	1052.999268
7468.489776	0.088927	0.452612	1132.500000
7468.490734	0.089059	0.452612	1217.818359
7468.491645	0.088982	0.452612	1298.880859
7468.492540	0.088971	0.452612	1378.509888
7468.493465	0.089077	0.452612	1460.906250
7468.494366	0.089004	0.452612	1541.098755
7468.495279	0.088920	0.452612	1622.282471
7468.496172	0.089044	0.452612	1701.798950
7469.458940	0.911294	0.461329	441.977539
7469.459878	0.493059	0.461329	904.466980
7469.460798	0.092985	0.461329	990.012817
7469.461688	0.088964	0.461329	1069.190430
7469.462632	0.088960	0.461329	1153.168579
7469.463569	0.088982	0.461329	1236.544678
7469.464466	0.088956	0.461329	1316.338501
7469.465391	0.088982	0.461329	1398.646729
7469.466325	0.088993	0.461329	1481.766113
7469.467236	0.088931	0.461329	1562.781982
7469.468133	0.088949	0.461329	1642.569214
7469.469069	0.088978	0.461329	1725.852905
7470.488537	0.859728	0.464628	384.298340
7470.489438	0.588457	0.464628	914.498169
7470.490369	0.096471	0.464628	1004.312622
7470.491287	0.088916	0.464628	1085.937500
7470.492192	0.088956	0.464628	1166.442993
7470.493079	0.088964	0.464628	1245.353760
7470.494025	0.089055	0.464628	1329.599976
7470.494943	0.088931	0.464628	1411.238281
7470.495838	0.088960	0.464628	1490.857422
7470.496723	0.089026	0.464628	1569.645264
7470.497647	0.089070	0.464628	1651.945801
7470.498552	0.088923	0.464628	1732.421387
7471.462902	0.867451	0.460918	410.304382
7471.463803	0.558226	0.460918	913.266357
7471.464695	0.095559	0.460918	998.505066
7471.465644	0.088905	0.460918	1082.875977
7471.466580	0.088953	0.460918	1166.135620
7471.467481	0.088949	0.460918	1246.278687
7471.468393	0.088920	0.460918	1327.373413
7471.469321	0.088953	0.460918	1409.921509
7471.470262	0.088898	0.460918	1493.574219
7471.471156	0.088912	0.460918	1573.061890
7471.472084	0.088967	0.460918	1655.623535
7471.473024	0.088883	0.460918	1739.173584
7472.530895	0.870751	0.460717	386.613312
7472.531872	0.513669	0.460717	888.468384
7472.532799	0.093219	0.460717	974.882385
7472.533688	0.088846	0.460717	1053.866821
7472.534621	0.088931	0.460717	1136.839111
7472.535532	0.089044	0.460717	1217.958374
7472.536447	0.089037	0.460717	1299.427124
7472.537344	0.088964	0.460717	1379.227539
7472.538289	0.088986	0.460717	1463.318970
7472.539202	0.088931	0.460717	1544.512695
7472.540094	0.089000	0.460717	1623.900879
7472.541009	0.088923	0.460717	1705.265747
7473.470939	0.872640	0.464963	394.433441
7473.471853	0.575266	0.464963	920.226685
7473.472739	0.096046	0.464963	1005.323547
7473.473697	0.088931	0.464963	1090.519165
7473.474596	0.088942	0.464963	1170.477661
7473.475492	0.088887	0.464963	1250.120117
7473.476419	0.088938	0.464963	1332.565674
7473.477320	0.089026	0.464963	1412.777954
7473.478222	0.088934	0.464963	1492.996704
7473.479113	0.088971	0.464963	1572.269775
7473.480063	0.089062	0.464963	1656.879150
7473.480957	0.088949	0.464963	1736.399536
7474.531829	0.870454	0.470208	418.688416
7474.532774	0.503430	0.470208	894.429932
7474.533694	0.093168	0.470208	980.144226
7474.534582	0.088898	0.470208	1059.085449
7474.535526	0.088905	0.470208	1143.011841
7474.536471	0.089022	0.470208	1227.137817
7474.537372	0.088960	0.470208	1307.290771
7474.538273	0.088971	0.470208	1387.453613
7474.539205	0.089000	0.470208	1470.401855
7474.540134	0.088909	0.470208	1552.998047
7474.541047	0.088978	0.470208	1634.235229
7474.541936	0.088956	0.470208	1713.317383
7475.510219	0.869333	0.470401	382.506714
7475.511200	0.505913	0.470401	878.807434
7475.512104	0.093622	0.470401	963.441589
7475.512993	0.088923	0.470401	1042.494385
7475.513946	0.088989	0.470401	1127.301147
7475.514853	0.089004	0.470401	1208.027710
7475.515776	0.088971	0.470401	1290.147949
7475.516664	0.089037	0.470401	1369.212646
7475.517607	0.089022	0.470401	1453.160645
7475.518501	0.088923	0.470401	1532.658081
7475.519394	0.088982	0.470401	1612.118896
7475.520330	0.089066	0.470401	1695.484863
7476.540379	0.869901	0.480988	390.585602
7476.541287	0.585165	0.480988	921.915283
7476.542175	0.096526	0.480988	1007.630249
7476.543131	0.088971	0.480988	1092.686523
7476.544023	0.089015	0.480988	1172.087769
7476.544922	0.088949	0.480988	1252.052856
7476.545823	0.089026	0.480988	1332.265137
7476.546750	0.089077	0.480988	1414.839600
7476.547656	0.089004	0.480988	1495.477173
7476.548554	0.088982	0.480988	1575.382935
7476.549484	0.088986	0.480988	1658.139526
7476.550383	0.088993	0.480988	1738.144165
7477.516259	0.866418	0.473519	394.220367
7477.517154	0.586937	0.473519	919.529175
7477.518082	0.096050	0.473519	1008.663391
7477.519014	0.088920	0.473519	1091.536499
7477.519932	0.088960	0.473519	1173.201782
7477.520830	0.088942	0.473519	1253.071411
7477.521782	0.089008	0.473519	1337.806641
7477.522716	0.088931	0.473519	1420.867920
7477.523619	0.088945	0.473519	1501.185547
7477.524537	0.088945	0.473519	1582.837402
7477.525478	0.088942	0.473519	1666.531494
7477.526393	0.088920	0.473519	1747.892944
7478.577626	0.871263	0.453414	390.326019
7478.578532	0.590109	0.453414	924.964478
7478.579423	0.096456	0.453414	1010.907043
7478.580343	0.088879	0.453414	1092.676025
7478.581284	0.089015	0.453414	1176.439087
7478.582208	0.088949	0.453414	1258.627930
7478.583096	0.088997	0.453414	1337.656860
7478.584042	0.088905	0.453414	1421.760986
7478.584944	0.088868	0.453414	1501.920288
7478.585862	0.088909	0.453414	1583.538452
7478.586762	0.088938	0.453414	1663.582642
7478.587698	0.088942	0.453414	1746.832031
7479.517140	0.862178	0.474063	384.531281
7479.518033	0.588966	0.474063	910.478027
7479.519004	0.094585	0.474063	1002.320007
7479.519937	0.088938	0.474063	1085.299194
7479.520830	0.088953	0.474063	1164.733887
7479.521744	0.088890	0.474063	1245.979736
7479.522678	0.088923	0.474063	1329.034180
7479.523596	0.088956	0.474063	1410.696045
7479.524497	0.088898	0.474063	1490.792847
7479.525447	0.089026	0.474063	1575.367432
7479.526388	0.088982	0.474063	1659.099487
7479.527289	0.089062	0.474063	1739.344849
7480.595439	0.871721	0.440656	411.452423
7480.596344	0.558479	0.440656	916.875916
7480.597271	0.095347	0.440656	1005.262268
7480.598208	0.088887	0.440656	1088.549072
7480.599125	0.088967	0.440656	1170.132080
7480.600021	0.089004	0.440656	1249.879639
7480.600991	0.088949	0.440656	1336.160156
7480.601928	0.088894	0.440656	1419.453857
7480.602849	0.088942	0.440656	1501.369141
7480.603739	0.088971	0.440656	1580.553223
7480.604678	0.088909	0.440656	1664.038452
7480.605608	0.088909	0.440656	1746.723511
7481.545741	0.911283	0.489008	462.020447
7481.546666	0.491122	0.489008	916.308167
7481.547564	0.093354	0.489008	1000.140503
7481.548454	0.088850	0.489008	1079.217041
7481.549393	0.089015	0.489008	1162.802002
7481.550301	0.089077	0.489008	1243.684082
7481.551197	0.089011	0.489008	1323.438110
7481.552123	0.089026	0.489008	1405.876099
7481.553026	0.089055	0.489008	1486.292969
7481.553935	0.088964	0.489008	1567.160889
7481.554829	0.088894	0.489008	1646.632202
7481.555763	0.089011	0.489008	1729.768677
7482.595793	0.855040	0.448189	377.927795
7482.596688	0.599524	0.448189	914.501770
7482.597651	0.094834	0.448189	1005.826904
7482.598575	0.088883	0.448189	1087.954834
7482.599465	0.088964	0.448189	1167.132446
7482.600393	0.088964	0.448189	1249.690674
7482.601332	0.088949	0.448189	1333.213745
7482.602242	0.089066	0.448189	1414.263916
7482.603142	0.089037	0.448189	1494.397095
7482.604083	0.088923	0.448189	1578.073975
7482.605010	0.088931	0.448189	1660.512695
7482.605907	0.088993	0.448189	1740.339355
7483.575301	0.884052	0.480685	439.373596
7483.576233	0.490393	0.480685	896.419922
7483.577137	0.093314	0.480685	980.775940
7483.578026	0.088876	0.480685	1059.786499
7483.578981	0.088989	0.480685	1144.771240
7483.579883	0.089103	0.480685	1225.141968
7483.580785	0.088960	0.480685	1305.383789
7483.581672	0.089048	0.480685	1384.369263
7483.582619	0.089077	0.480685	1468.725342
7483.583525	0.088934	0.480685	1549.299805
7483.584417	0.089004	0.480685	1628.691284
7483.585354	0.089011	0.480685	1712.094849
7484.604899	0.881770	0.471473	402.968903
7484.605814	0.563738	0.471473	918.788940
7484.606706	0.095632	0.471473	1004.092957
7484.607634	0.088835	0.471473	1086.532227
7484.608578	0.088923	0.471473	1170.475830
7484.609487	0.088949	0.471473	1251.330444
7484.610376	0.088839	0.471473	1330.308472
7484.611318	0.088971	0.471473	1414.119141
7484.612252	0.088967	0.471473	1497.214600
7484.613151	0.088993	0.471473	1577.219238
7484.614077	0.088960	0.471473	1659.596191
7484.615005	0.088982	0.471473	1742.171387
7485.594573	0.850796	0.465777	372.648590
7485.595468	0.609514	0.465777	918.163818
7485.596431	0.094794	0.465777	1009.450134
7485.597338	0.088868	0.465777	1090.053711
7485.598256	0.089026	0.465777	1171.779419
7485.599157	0.088964	0.465777	1251.935669
7485.600106	0.088978	0.465777	1336.376099
7485.601014	0.089000	0.465777	1417.188354
7485.601902	0.089004	0.465777	1496.223877
7485.602829	0.089062	0.465777	1578.784790
7485.603746	0.089008	0.465777	1660.404785
7485.604670	0.088967	0.465777	1742.610596
7488.641999	0.853663	0.466131	373.050873
7488.642937	0.586271	0.466131	922.972778
7488.643870	0.094299	0.466131	1010.954041
7488.644791	0.089000	0.466131	1092.923218
7488.645678	0.088942	0.466131	1171.814453
7488.646631	0.088883	0.466131	1256.520020
7488.647574	0.088993	0.466131	1340.440308
7488.648484	0.088997	0.466131	1421.427246
7488.649382	0.088868	0.466131	1501.231079
7488.650328	0.088967	0.466131	1585.394165
7488.651265	0.088971	0.466131	1668.759888
7488.652163	0.088971	0.466131	1748.655762
7489.622489	0.865726	0.451057	383.516754
7489.623398	0.589731	0.451057	919.582642
7489.624288	0.096508	0.451057	1005.474365
7489.625233	0.088964	0.451057	1089.544922
7489.626148	0.089022	0.451057	1171.000244
7489.627050	0.089008	0.451057	1251.285034
7489.627942	0.088920	0.451057	1330.601440
7489.628884	0.089125	0.451057	1414.557007
7489.629795	0.088971	0.451057	1495.609497
7489.630689	0.089019	0.451057	1575.192139
7489.631587	0.089019	0.451057	1655.130859
7489.632529	0.088993	0.451057	1738.962158
7490.659820	0.865151	0.473845	407.486298
7490.660767	0.522228	0.473845	902.036011
7490.661695	0.093395	0.473845	988.706360
7490.662589	0.088923	0.473845	1068.203857
7490.663504	0.088949	0.473845	1149.592163
7490.664436	0.088923	0.473845	1232.468750
7490.665351	0.088986	0.473845	1313.890625
7490.666244	0.089008	0.473845	1393.374390
7490.667164	0.089004	0.473845	1475.257935
7490.668089	0.088956	0.473845	1557.542480
7490.669001	0.088986	0.473845	1638.697388
7490.669895	0.088879	0.473845	1718.155518
7491.639264	0.868546	0.462582	390.845764
7491.640177	0.580430	0.462582	920.778137
7491.641066	0.096138	0.462582	1006.244568
7491.641999	0.088938	0.462582	1089.223755
7491.642919	0.088890	0.462582	1171.002930
7491.643821	0.089070	0.462582	1251.343872
7491.644709	0.088960	0.462582	1330.340332
7491.645663	0.089000	0.462582	1415.246582
7491.646569	0.089019	0.462582	1495.897339
7491.647484	0.089073	0.462582	1577.399536
7491.648382	0.089052	0.462582	1657.367798
7491.649317	0.088989	0.462582	1740.572754
7492.674561	0.896144	0.478264	443.591187
7492.675486	0.508110	0.478264	913.593262
7492.676385	0.094094	0.478264	998.183960
7492.677273	0.088934	0.478264	1077.157593
7492.678222	0.089106	0.478264	1161.719604
7492.679129	0.088993	0.478264	1242.436157
7492.680021	0.088967	0.478264	1321.794922
7492.680931	0.089121	0.478264	1402.895142
7492.681852	0.089048	0.478264	1484.908203
7492.682758	0.089000	0.478264	1565.542480
7492.683654	0.088967	0.478264	1645.257202
7492.684598	0.089019	0.478264	1729.290771
7493.658568	0.855930	0.469229	372.329620
7493.659530	0.533328	0.469229	885.390869
7493.660480	0.093468	0.469229	974.185486
7493.661393	0.088967	0.469229	1055.412598
7493.662280	0.088956	0.469229	1134.316895
7493.663222	0.088942	0.469229	1218.099976
7493.664160	0.088978	0.469229	1301.561646
7493.665060	0.088942	0.469229	1381.609131
7493.665977	0.088997	0.469229	1463.218994
7493.666915	0.088975	0.469229	1546.677124
7493.667851	0.088942	0.469229	1629.926514
7493.668750	0.088989	0.469229	1709.927856
7494.687685	0.846830	0.485499	365.830475
7494.688641	0.553564	0.485499	895.038086
7494.689550	0.094585	0.485499	981.015808
7494.690475	0.088839	0.485499	1063.192017
7494.691369	0.088890	0.485499	1142.660034
7494.692324	0.088931	0.485499	1227.588867
7494.693230	0.088967	0.485499	1308.193237
7494.694120	0.088986	0.485499	1387.390381
7494.695058	0.088975	0.485499	1470.848511
7494.695971	0.088945	0.485499	1552.055542
7494.696864	0.088894	0.485499	1631.437866
7494.697748	0.088975	0.485499	1710.091431
7495.679943	0.863551	0.470043	376.508240
7495.680936	0.497981	0.470043	871.003296
7495.681868	0.092856	0.470043	957.545532
7495.682764	0.088920	0.470043	1037.217529
7495.683686	0.089019	0.470043	1119.292603
7495.684627	0.088956	0.470043	1203.000488
7495.685545	0.089004	0.470043	1284.706055
7495.686436	0.088967	0.470043	1363.975952
7495.687387	0.088956	0.470043	1448.573364
7495.688317	0.088927	0.470043	1531.275513
7495.689218	0.088931	0.470043	1611.402100
7495.690135	0.089008	0.470043	1693.022095
7496.702933	0.855128	0.473370	382.242279
7496.703828	0.603164	0.473370	922.074097
7496.704756	0.097152	0.473370	1012.231262
7496.705686	0.088923	0.473370	1094.929932
7496.706580	0.089062	0.473370	1174.551758
7496.707469	0.089066	0.473370	1253.731567
7496.708407	0.088982	0.473370	1337.196655
7496.709315	0.088964	0.473370	1417.975586
7496.710240	0.088967	0.473370	1500.270264
7496.711136	0.088975	0.473370	1579.991455
7496.712093	0.088971	0.473370	1665.136597
7496.712994	0.088953	0.473370	1745.282959
7497.695194	0.868652	0.477060	390.893555
7497.696096	0.594946	0.477060	927.535156
7497.696982	0.096984	0.477060	1013.462646
7497.697917	0.088934	0.477060	1096.616211
7497.698840	0.088960	0.477060	1178.726318
7497.699741	0.088975	0.477060	1258.892456
7497.700675	0.089030	0.477060	1342.046021
7497.701580	0.089066	0.477060	1422.650879
7497.702485	0.088986	0.477060	1503.182861
7497.703377	0.089004	0.477060	1582.574341
7497.704324	0.089052	0.477060	1666.906128
7497.705220	0.088890	0.477060	1746.551880
7498.725382	0.916989	0.456282	454.826324
7498.726302	0.507825	0.456282	922.025024
7498.727212	0.093604	0.456282	1007.204224
7498.728113	0.088920	0.456282	1087.320801
7498.729072	0.088978	0.456282	1172.651001
7498.729995	0.088938	0.456282	1254.740723
7498.730887	0.088960	0.456282	1334.093018
7498.731815	0.088931	0.456282	1416.620728
7498.732736	0.088945	0.456282	1498.539307
7498.733653	0.088967	0.456282	1580.122314
7498.734538	0.088920	0.456282	1658.816284
7498.735491	0.088986	0.456282	1743.619507
7499.697637	0.875771	0.491647	399.351776
7499.698558	0.553780	0.491647	909.383606
7499.699458	0.095046	0.491647	994.925354
7499.700400	0.089081	0.491647	1078.839478
7499.701306	0.089125	0.491647	1159.586548
7499.702207	0.089077	0.491647	1239.845093
7499.703101	0.089077	0.491647	1319.480103
7499.704044	0.089117	0.491647	1403.517822
7499.704937	0.089062	0.491647	1483.050659
7499.705837	0.089077	0.491647	1563.220093
7499.706723	0.089062	0.491647	1642.129517
7499.707680	0.089191	0.491647	1727.484985
7500.759026	0.870176	0.438787	417.684387
7500.759981	0.506129	0.438787	901.037720
7500.760907	0.092706	0.438787	986.883728
7500.761801	0.088931	0.438787	1066.387695
7500.762725	0.088982	0.438787	1148.607056
7500.763657	0.088920	0.438787	1231.480225
7500.764579	0.088989	0.438787	1313.528320
7500.765466	0.089048	0.438787	1392.513794
7500.766426	0.089041	0.438787	1477.992676
7500.767359	0.088945	0.438787	1560.978638
7500.768252	0.089048	0.438787	1640.498413
7500.769173	0.088949	0.438787	1722.420410
7501.701084	0.870634	0.496170	388.302551
7501.701991	0.587618	0.496170	921.272461
7501.702882	0.096332	0.496170	1007.104065
7501.703791	0.088876	0.496170	1087.892090
7501.704733	0.088971	0.496170	1171.702759
7501.705644	0.088916	0.496170	1252.705200
7501.706532	0.088997	0.496170	1331.734131
7501.707479	0.089015	0.496170	1416.031250
7501.708388	0.088901	0.496170	1496.842529
7501.709284	0.088956	0.496170	1576.547363
7501.710174	0.089041	0.496170	1655.793457
7501.711110	0.088975	0.496170	1739.073730
7502.777341	0.905757	0.454360	437.480560
7502.778250	0.537839	0.454360	926.376526
7502.779143	0.094849	0.454360	1011.076355
7502.780102	0.088879	0.454360	1096.311646
7502.781029	0.088894	0.454360	1178.716431
7502.781928	0.088945	0.454360	1258.678223
7502.782858	0.088997	0.454360	1341.445068
7502.783801	0.088986	0.454360	1425.358521
7502.784717	0.088982	0.454360	1506.865967
7502.785608	0.088905	0.454360	1586.080322
7502.786555	0.088945	0.454360	1670.311523
7502.787490	0.088905	0.454360	1753.437744
7503.723982	0.871234	0.469350	385.956726
7503.724955	0.512249	0.469350	884.374634
7503.725861	0.093845	0.469350	969.398376
7503.726753	0.089026	0.469350	1048.809448
7503.727689	0.089103	0.469350	1132.209717
7503.728591	0.089044	0.469350	1212.527588
7503.729517	0.089062	0.469350	1294.999512
7503.730402	0.089026	0.469350	1373.787354
7503.731357	0.089077	0.469350	1458.856079
7503.732254	0.089041	0.469350	1538.725464
7503.733145	0.089084	0.469350	1618.099731
7503.734067	0.089088	0.469350	1700.239014
7504.777180	0.869088	0.472190	388.482391
7504.778109	0.567711	0.472190	915.886108
7504.779000	0.095819	0.472190	1001.260925
7504.779940	0.088898	0.472190	1084.824707
7504.780849	0.089011	0.472190	1165.735962
7504.781742	0.088997	0.472190	1245.209961
7504.782641	0.089033	0.472190	1325.250854
7504.783581	0.089077	0.472190	1408.983398
7504.784484	0.088942	0.472190	1489.297729
7504.785392	0.089008	0.472190	1570.116577
7504.786279	0.089041	0.472190	1649.095459
7504.787233	0.089106	0.472190	1734.103027
7505.762775	0.864485	0.454300	384.695770
7505.763717	0.544926	0.454300	898.015625
7505.764607	0.095189	0.454300	982.734009
7505.765537	0.088971	0.454300	1065.477051
7505.766474	0.089059	0.454300	1148.925171
7505.767394	0.089008	0.454300	1230.812134
7505.768286	0.089000	0.454300	1310.200317
7505.769232	0.089055	0.454300	1394.446533
7505.770168	0.089084	0.454300	1477.829590
7505.771059	0.089022	0.454300	1557.148437
7505.771977	0.089037	0.454300	1638.884277
7505.772913	0.089052	0.454300	1722.236450
7506.785242	0.881689	0.471453	399.405334
7506.786179	0.541604	0.471453	906.888306
7506.787070	0.095002	0.471453	991.535461
7506.788038	0.088920	0.471453	1077.609741
7506.788945	0.088942	0.471453	1158.279785
7506.789869	0.088986	0.471453	1240.502441
7506.790760	0.088894	0.471453	1319.707031
7506.791711	0.088949	0.471453	1404.297485
7506.792635	0.088971	0.471453	1486.506592
7506.793526	0.088982	0.471453	1565.789551
7506.794456	0.088942	0.471453	1648.505249
7506.795366	0.088989	0.471453	1729.485474
7507.772362	0.849716	0.486921	370.475983
7507.773316	0.547540	0.486921	892.829468
7507.774223	0.094764	0.486921	978.780762
7507.775131	0.089008	0.486921	1059.599609
7507.776023	0.089041	0.486921	1139.023804
7507.776960	0.089084	0.486921	1222.495972
7507.777863	0.089084	0.486921	1302.939209
7507.778753	0.089081	0.486921	1382.221191
7507.779683	0.089081	0.486921	1465.066406
7507.780589	0.089103	0.486921	1545.793579
7507.781490	0.089114	0.486921	1626.085083
7507.782382	0.089088	0.486921	1705.551758
7508.821455	0.855461	0.452366	378.113953
7508.822417	0.549873	0.452366	907.091858
7508.823336	0.093739	0.452366	993.238037
7508.824255	0.088916	0.452366	1074.951904
7508.825162	0.088978	0.452366	1155.655151
7508.826107	0.088923	0.452366	1239.687744
7508.827047	0.088971	0.452366	1323.320435
7508.827940	0.088971	0.452366	1402.771484
7508.828866	0.088956	0.452366	1485.145020
7508.829804	0.088920	0.452366	1568.551636
7508.830726	0.088975	0.452366	1650.586182
7508.831613	0.088938	0.452366	1729.474121
7509.768663	0.867975	0.484508	389.720734
7509.769556	0.599465	0.484508	925.043213
7509.770499	0.095380	0.484508	1014.986206
7509.771397	0.088887	0.484508	1094.806519
7509.772307	0.088953	0.484508	1175.753418
7509.773198	0.088912	0.484508	1254.974365
7509.774151	0.089008	0.484508	1339.798584
7509.775054	0.088953	0.484508	1420.122803
7509.775945	0.088978	0.484508	1499.402466
7509.776872	0.089008	0.484508	1581.912476
7509.777787	0.088953	0.484508	1663.304199
7509.778683	0.088960	0.484508	1743.012329
7510.844871	0.848353	0.468846	368.185303
7510.845793	0.597341	0.468846	918.934021
7510.846720	0.095006	0.468846	1007.004700
7510.847634	0.088960	0.468846	1088.314087
7510.848533	0.088986	0.468846	1168.312134
7510.849478	0.089030	0.468846	1252.445068
7510.850377	0.089004	0.468846	1332.459595
7510.851276	0.089041	0.468846	1412.507080
7510.852161	0.088938	0.468846	1491.217163
7510.853094	0.089015	0.468846	1574.268066
7510.854000	0.088978	0.468846	1654.882324
7510.854900	0.088945	0.468846	1734.933105
7511.793611	0.855498	0.459951	374.708130
7511.794583	0.532115	0.459951	891.924377
7511.795510	0.093574	0.459951	978.667664
7511.796401	0.088912	0.459951	1057.888550
7511.797317	0.088912	0.459951	1139.332275
7511.798254	0.088945	0.459951	1222.674072
7511.799168	0.088975	0.459951	1303.996826
7511.800075	0.088934	0.459951	1384.660278
7511.800972	0.088931	0.459951	1464.431030
7511.801922	0.089011	0.459951	1548.991699
7511.802853	0.088986	0.459951	1631.837280
7511.803752	0.088920	0.459951	1711.776123
7512.840191	0.910745	0.484045	448.086365
7512.841111	0.521316	0.484045	927.697021
7512.842037	0.093380	0.484045	1014.166992
7512.842923	0.088887	0.484045	1092.920654
7512.843871	0.088942	0.484045	1177.237305
7512.844765	0.088931	0.484045	1256.741333
7512.845654	0.089015	0.484045	1335.875610
7512.846584	0.089041	0.484045	1418.683350
7512.847500	0.088942	0.484045	1500.153931
7512.848402	0.088879	0.484045	1580.323120
7512.849287	0.088912	0.484045	1659.010498
7512.850249	0.088956	0.484045	1744.586426
7513.830351	0.858878	0.477072	381.341919
7513.831252	0.601677	0.477072	923.453125
7513.832167	0.097104	0.477072	1012.303711
7513.833098	0.088934	0.477072	1095.101562
7513.833999	0.088949	0.477072	1175.244629
7513.834892	0.089041	0.477072	1254.757812
7513.835819	0.089000	0.477072	1337.260986
7513.836724	0.089052	0.477072	1417.852661
7513.837628	0.088916	0.477072	1498.232788
7513.838517	0.089044	0.477072	1577.393066
7513.839457	0.088986	0.477072	1661.039551
7513.840361	0.088986	0.477072	1741.482544
7514.852337	0.868663	0.478192	415.221069
7514.853242	0.551938	0.478192	914.725403
7514.854160	0.095288	0.478192	1002.199829
7514.855094	0.088865	0.478192	1085.199463
7514.856033	0.088960	0.478192	1168.732910
7514.856933	0.088942	0.478192	1248.780396
7514.857863	0.088967	0.478192	1331.520020
7514.858795	0.088949	0.478192	1414.420410
7514.859710	0.088956	0.478192	1495.815430
7514.860599	0.088942	0.478192	1574.884521
7514.861543	0.088971	0.478192	1658.873047
7514.862473	0.088942	0.478192	1741.588745
7515.836374	0.860310	0.497753	377.676086
7515.837285	0.592679	0.497753	917.607056
7515.838177	0.096376	0.497753	1003.574219
7515.839113	0.088894	0.497753	1086.779053
7515.840043	0.088909	0.497753	1169.464111
7515.840942	0.088942	0.497753	1249.422607
7515.841834	0.088934	0.497753	1328.752075
7515.842783	0.089041	0.497753	1413.251587
7515.843686	0.089004	0.497753	1493.622070
7515.844588	0.088971	0.497753	1573.873901
7515.845481	0.088960	0.497753	1653.315186
7515.846426	0.088978	0.497753	1737.399658
7516.890574	0.851671	0.449160	373.883636
7516.891466	0.613008	0.449160	920.686646
7516.892439	0.094596	0.449160	1012.728516
7516.893333	0.088964	0.449160	1092.261963
7516.894235	0.088967	0.449160	1172.510498
7516.895138	0.088960	0.449160	1252.841309
7516.896077	0.089132	0.449160	1336.536377
7516.896981	0.088971	0.449160	1416.966064
7516.897879	0.089004	0.449160	1496.891602
7516.898800	0.088982	0.449160	1578.843994
7516.899699	0.088989	0.449160	1658.845337
7516.900594	0.088945	0.449160	1738.451416
7517.835222	0.872823	0.497890	390.152100
7517.836127	0.585029	0.497890	919.603638
7517.837062	0.094808	0.497890	1008.249451
7517.837994	0.088843	0.497890	1091.050903
7517.838912	0.088997	0.497890	1172.749756
7517.839804	0.088934	0.497890	1252.079224
7517.840752	0.088934	0.497890	1336.388916
7517.841691	0.088872	0.497890	1419.839844
7517.842588	0.088916	0.497890	1499.597534
7517.843506	0.088898	0.497890	1581.205566
7517.844439	0.088978	0.497890	1664.222290
7517.845362	0.088901	0.497890	1746.278198
7518.910954	0.877233	0.464488	414.053833
7518.911860	0.553802	0.464488	915.798889
7518.912807	0.094893	0.464488	1005.662170
7518.913716	0.088835	0.464488	1086.413574
7518.914643	0.088989	0.464488	1168.906616
7518.915530	0.088912	0.464488	1247.771851
7518.916480	0.088920	0.464488	1332.245605
7518.917377	0.088923	0.464488	1412.009888
7518.918263	0.088923	0.464488	1490.795898
7518.919185	0.089011	0.464488	1572.864258
7518.920110	0.088887	0.464488	1655.084473
7518.921015	0.088931	0.464488	1735.566772
7519.856088	0.868883	0.482538	393.604034
7519.856988	0.584740	0.482538	919.869995
7519.857916	0.095651	0.482538	1008.633789
7519.858853	0.088865	0.482538	1091.900024
7519.859771	0.088923	0.482538	1173.531616
7519.860662	0.088876	0.482538	1252.719849
7519.861610	0.088964	0.482538	1337.057373
7519.862542	0.088887	0.482538	1419.899780
7519.863444	0.089019	0.482538	1500.194580
7519.864362	0.088916	0.482538	1581.819458
7519.865300	0.088861	0.482538	1665.171143
7519.866216	0.088986	0.482538	1746.682007
7520.915394	0.847712	0.481757	366.211761
7520.916354	0.557010	0.481757	900.941772
7520.917263	0.094263	0.481757	986.626587
7520.918188	0.088828	0.481757	1068.792603
7520.919078	0.088916	0.481757	1147.927856
7520.920028	0.088872	0.481757	1232.356323
7520.920947	0.088879	0.481757	1314.036499
7520.921866	0.088916	0.481757	1395.750366
7520.922759	0.089004	0.481757	1475.230835
7520.923708	0.088909	0.481757	1559.605225
7520.924623	0.088883	0.481757	1640.933228
7520.925522	0.088960	0.481757	1720.908203
7521.889253	0.875544	0.478087	397.497162
7521.890158	0.580261	0.478087	922.633545
7521.891049	0.096354	0.478087	1008.484741
7521.892009	0.088989	0.478087	1093.914429
7521.892909	0.088949	0.478087	1173.968506
7521.893807	0.088967	0.478087	1253.861084
7521.894732	0.088975	0.478087	1336.162598
7521.895649	0.089048	0.478087	1417.819458
7521.896561	0.088927	0.478087	1498.920898
7521.897457	0.089008	0.478087	1578.671631
7521.898396	0.089008	0.478087	1662.249756
7521.899297	0.089052	0.478087	1742.485107
7522.920400	0.865444	0.478244	384.257263
7522.921371	0.511381	0.478244	880.807861
7522.922291	0.093344	0.478244	966.683899
7522.923192	0.088883	0.478244	1046.767578
7522.924113	0.088832	0.478244	1128.581665
7522.925058	0.088923	0.478244	1212.614258
7522.925978	0.088986	0.478244	1294.480957
7522.926872	0.088931	0.478244	1373.984985
7522.927811	0.088942	0.478244	1457.501221
7522.928733	0.088953	0.478244	1539.515503
7522.929630	0.088909	0.478244	1619.266602
7522.930549	0.088894	0.478244	1700.960205
7523.914201	0.859384	0.478172	379.847534
7523.915096	0.599293	0.478172	916.214966
7523.916056	0.094677	0.478172	1007.104431
7523.916951	0.088806	0.478172	1086.585937
7523.917838	0.088931	0.478172	1165.467407
7523.918760	0.088931	0.478172	1247.461426
7523.919690	0.088989	0.478172	1330.221436
7523.920596	0.088927	0.478172	1410.789307
7523.921515	0.089011	0.478172	1492.590576
7523.922402	0.088879	0.478172	1571.426636
7523.923357	0.088916	0.478172	1656.341431
7523.924275	0.088876	0.478172	1737.929321
7524.936146	0.865917	0.475263	388.796600
7524.937052	0.585524	0.475263	919.281006
7524.937988	0.095673	0.475263	1008.830566
7524.938902	0.088956	0.475263	1090.136597
7524.939811	0.089004	0.475263	1171.041138
7524.940700	0.088894	0.475263	1250.067993
7524.941655	0.089022	0.475263	1335.084229
7524.942559	0.088997	0.475263	1415.537109
7524.943451	0.089052	0.475263	1494.971069
7524.944365	0.088927	0.475263	1576.250366
7524.945289	0.088978	0.475263	1658.466309
7524.946200	0.088949	0.475263	1739.498779
7525.926913	0.912202	0.495357	443.330261
7525.927850	0.505133	0.495357	916.639893
7525.928742	0.093867	0.495357	1000.369446
7525.929671	0.088770	0.495357	1082.836304
7525.930608	0.088960	0.495357	1166.191772
7525.931515	0.088912	0.495357	1246.835327
7525.932413	0.088839	0.495357	1326.612793
7525.933367	0.088890	0.495357	1411.414185
7525.934308	0.088901	0.495357	1495.070312
7525.935229	0.088975	0.495357	1577.015869
7525.936122	0.088905	0.495357	1656.408081
7525.937074	0.088868	0.495357	1741.010742
7526.957031	0.892489	0.472568	418.577362
7526.957942	0.551942	0.472568	921.396667
7526.958890	0.093823	0.472568	1010.341125
7526.959805	0.088843	0.472568	1091.632324
7526.960728	0.088960	0.472568	1173.742432
7526.961618	0.088938	0.472568	1252.897217
7526.962563	0.088949	0.472568	1336.953979
7526.963452	0.088824	0.472568	1415.918945
7526.964343	0.088894	0.472568	1495.123535
7526.965294	0.089022	0.472568	1579.783691
7526.966187	0.088883	0.472568	1659.156250
7526.967109	0.088846	0.472568	1741.072632
7527.935953	0.865170	0.498615	387.596008
7527.936857	0.589720	0.498615	920.703247
7527.937805	0.095109	0.498615	1010.866211
7527.938702	0.088934	0.498615	1090.640259
7527.939600	0.089048	0.498615	1170.605225
7527.940486	0.088901	0.498615	1249.371826
7527.941417	0.088978	0.498615	1332.210571
7527.942322	0.088993	0.498615	1412.749146
7527.943222	0.088923	0.498615	1492.780151
7527.944151	0.089000	0.498615	1575.461426
7527.945062	0.089000	0.498615	1656.540649
7527.945969	0.088978	0.498615	1737.243896
7528.978890	0.854755	0.468814	376.092041
7528.979857	0.541351	0.468814	899.578735
7528.980781	0.093464	0.468814	985.939819
7528.981679	0.088887	0.468814	1065.760132
7528.982597	0.088905	0.468814	1147.375000
7528.983533	0.088953	0.468814	1230.634644
7528.984461	0.088843	0.468814	1313.080688
7528.985358	0.088956	0.468814	1392.874512
7528.986284	0.088916	0.468814	1475.210693
7528.987224	0.088989	0.468814	1558.860596
7528.988146	0.088956	0.468814	1640.878296
7528.989035	0.088978	0.468814	1719.979980
7529.948170	0.907148	0.497600	448.131317
7529.949091	0.509055	0.497600	916.971069
7529.949992	0.093768	0.497600	1001.456299
7529.950885	0.088857	0.497600	1080.806030
7529.951840	0.089026	0.497600	1165.825684
7529.952743	0.088986	0.497600	1246.179687
7529.953637	0.088949	0.497600	1325.700073
7529.954577	0.088960	0.497600	1409.322388
7529.955492	0.088960	0.497600	1490.720703
7529.956387	0.088964	0.497600	1570.343140
7529.957276	0.089008	0.497600	1649.470825
7529.958231	0.089106	0.497600	1734.567505
7530.998738	0.863591	0.466038	384.298126
7530.999642	0.594100	0.466038	921.364868
7531.000583	0.096530	0.466038	1012.199158
7531.001494	0.088942	0.466038	1093.224976
7531.002399	0.088942	0.466038	1173.717163
7531.003289	0.088971	0.466038	1252.901367
7531.004229	0.088960	0.466038	1336.523682
7531.005132	0.088942	0.466038	1416.838013
7531.006033	0.088956	0.466038	1496.987671
7531.006920	0.088909	0.466038	1575.849731
7531.007856	0.088971	0.466038	1659.126587
7531.008766	0.088931	0.466038	1740.053467
7531.963380	0.879375	0.495417	415.944397
7531.964294	0.548372	0.495417	917.156006
7531.965183	0.095299	0.495417	1001.876892
7531.966147	0.088872	0.495417	1087.549561
7531.967080	0.089019	0.495417	1170.603882
7531.967976	0.088942	0.495417	1250.295654
7531.968896	0.088927	0.495417	1332.108521
7531.969825	0.088989	0.495417	1414.779541
7531.970750	0.088971	0.495417	1497.077637
7531.971649	0.089000	0.495417	1577.088867
7531.972567	0.088905	0.495417	1658.703735
7531.973504	0.088916	0.495417	1742.018066
7533.015513	0.865979	0.466240	384.494659
7533.016427	0.584323	0.466240	918.565430
7533.017316	0.096423	0.466240	1004.285767
7533.018274	0.088927	0.466240	1089.477783
7533.019184	0.088989	0.466240	1170.458008
7533.020101	0.089037	0.466240	1252.104858
7533.020990	0.088909	0.466240	1331.144653
7533.021939	0.088927	0.466240	1415.536377
7533.022829	0.088989	0.466240	1494.736816
7533.023720	0.088993	0.466240	1574.029541
7533.024656	0.088956	0.466240	1657.292603
7533.025548	0.088989	0.466240	1736.671021
7533.982147	0.847214	0.487715	365.149384
7533.983083	0.588135	0.487715	915.643555
7533.984036	0.094709	0.487715	1005.901672
7533.984953	0.088975	0.487715	1087.491333
7533.985842	0.089161	0.487715	1166.755737
7533.986790	0.089103	0.487715	1251.225220
7533.987705	0.089041	0.487715	1332.697266
7533.988621	0.089139	0.487715	1414.348999
7533.989518	0.089092	0.487715	1494.264282
7533.990464	0.089099	0.487715	1578.552002
7533.991393	0.089125	0.487715	1661.348877
7533.992292	0.089103	0.487715	1741.452271
7535.029236	0.903241	0.479042	427.232971
7535.030170	0.516797	0.479042	909.921265
7535.031071	0.094025	0.479042	994.637451
7535.031993	0.088879	0.479042	1076.584229
7535.032927	0.088993	0.479042	1159.703613
7535.033858	0.088978	0.479042	1242.542358
7535.034759	0.089026	0.479042	1322.754639
7535.035679	0.088916	0.479042	1404.557373
7535.036615	0.088975	0.479042	1487.837646
7535.037535	0.088982	0.479042	1569.701050
7535.038422	0.088901	0.479042	1648.556519
7535.039368	0.088923	0.479042	1732.677979
7536.002002	0.856450	0.490925	381.976776
7536.002902	0.596506	0.490925	918.832397
7536.003843	0.096665	0.490925	1009.794189
7536.004747	0.088887	0.490925	1090.147827
7536.005649	0.088949	0.490925	1170.379761
7536.006542	0.088975	0.490925	1249.834106
7536.007476	0.088993	0.490925	1332.953491
7536.008390	0.088960	0.490925	1414.262939
7536.009298	0.088971	0.490925	1495.048584
7536.010190	0.088971	0.490925	1574.410645
7536.011140	0.089081	0.490925	1659.037354
7536.012049	0.088978	0.490925	1739.918579
7537.039341	0.875200	0.485145	413.969696
7537.040285	0.528369	0.485145	912.750122
7537.041202	0.093625	0.485145	998.604675
7537.042091	0.088876	0.485145	1077.615234
7537.043025	0.088916	0.485145	1160.662842
7537.043961	0.089000	0.485145	1243.967041
7537.044859	0.088971	0.485145	1323.862915
7537.045777	0.088942	0.485145	1405.511353
7537.046704	0.088938	0.485145	1487.956909
7537.047645	0.088905	0.485145	1571.616577
7537.048546	0.088967	0.485145	1651.776123
7537.049471	0.088986	0.485145	1734.087769
7538.024448	0.871271	0.480669	427.793915
7538.025379	0.514288	0.480669	906.596313
7538.026305	0.093259	0.480669	992.954407
7538.027196	0.088912	0.480669	1072.175293
7538.028134	0.088938	0.480669	1155.599121
7538.029046	0.088901	0.480669	1236.677124
7538.029959	0.088971	0.480669	1317.907593
7538.030850	0.089008	0.480669	1397.213379
7538.031806	0.088997	0.480669	1482.294067
7538.032738	0.088942	0.480669	1565.187744
7538.033632	0.089041	0.480669	1644.789917
7538.034567	0.089062	0.480669	1728.063354
7539.050970	0.868524	0.495401	392.572906
7539.051882	0.584960	0.495401	926.056152
7539.052771	0.096240	0.495401	1011.613708
7539.053715	0.088872	0.495401	1095.508911
7539.054626	0.088894	0.495401	1176.491333
7539.055527	0.088872	0.495401	1256.565063
7539.056453	0.088912	0.495401	1338.897949
7539.057360	0.088997	0.495401	1419.617798
7539.058264	0.088839	0.495401	1499.928345
7539.059154	0.088894	0.495401	1579.044067
7539.060095	0.088989	0.495401	1662.782959
7539.060995	0.088975	0.495401	1742.860107
7540.044783	0.890160	0.495892	421.935791
7540.045722	0.510403	0.495892	901.203979
7540.046645	0.093219	0.495892	987.245117
7540.047533	0.088843	0.495892	1066.137451
7540.048485	0.088945	0.495892	1150.813354
7540.049424	0.088920	0.495892	1234.308960
7540.050320	0.088953	0.495892	1314.010498
7540.051248	0.088890	0.495892	1396.500732
7540.052181	0.088872	0.495892	1479.418335
7540.053092	0.088850	0.495892	1560.360718
7540.053991	0.088916	0.495892	1640.296265
7540.054940	0.088909	0.495892	1724.670654
7541.068749	0.851444	0.499067	373.783936
7541.069643	0.604790	0.499067	914.466248
7541.070598	0.095292	0.499067	1005.469849
7541.071495	0.088909	0.499067	1085.220947
7541.072383	0.088971	0.499067	1164.227173
7541.073322	0.089077	0.499067	1247.870605
7541.074232	0.088982	0.499067	1328.844116
7541.075141	0.088923	0.499067	1409.675415
7541.076031	0.088975	0.499067	1488.862793
7541.076974	0.089000	0.499067	1572.790039
7541.077877	0.088883	0.499067	1653.051392
7541.078773	0.088945	0.499067	1732.746338
7542.058991	0.867067	0.501532	404.053070
7542.059906	0.562094	0.501532	918.368652
7542.060792	0.095603	0.501532	1003.072937
7542.061739	0.088817	0.501532	1087.182739
7542.062677	0.088839	0.501532	1170.513794
7542.063585	0.088989	0.501532	1251.316040
7542.064501	0.088982	0.501532	1332.823486
7542.065425	0.088883	0.501532	1414.951416
7542.066359	0.088898	0.501532	1497.981934
7542.067260	0.088942	0.501532	1578.118408
7542.068178	0.088920	0.501532	1659.746704
7542.069112	0.088883	0.501532	1742.763428
7543.094227	0.860438	0.482293	382.895020
7543.095134	0.592482	0.482293	920.275940
7543.096023	0.096709	0.482293	1006.250244
7543.096976	0.088872	0.482293	1090.945312
7543.097879	0.088938	0.482293	1171.256348
7543.098771	0.088938	0.482293	1250.588989
7543.099689	0.088887	0.482293	1332.187012
7543.100603	0.089008	0.482293	1413.539917
7543.101503	0.088960	0.482293	1493.603882
7543.102394	0.088971	0.482293	1572.876953
7543.103321	0.088887	0.482293	1655.274902
7543.104239	0.088898	0.482293	1736.883057
7544.060874	0.852726	0.499675	375.199341
7544.061829	0.526227	0.499675	877.745972
7544.062783	0.093182	0.499675	966.641968
7544.063702	0.088879	0.499675	1048.322144
7544.064590	0.089008	0.499675	1127.360840
7544.065529	0.089044	0.499675	1210.973389
7544.066466	0.089004	0.499675	1294.369995
7544.067355	0.088971	0.499675	1373.465210
7544.068269	0.089011	0.499675	1454.821533
7544.069206	0.088931	0.499675	1538.149536
7544.070125	0.089059	0.499675	1619.994629
7544.071023	0.089030	0.499675	1699.943115
7545.123827	0.877928	0.465281	422.283569
7545.124764	0.515200	0.465281	905.026123
7545.125684	0.093311	0.465281	990.871826
7545.126579	0.088912	0.465281	1070.448364
7545.127532	0.088960	0.465281	1155.227173
7545.128445	0.088879	0.465281	1236.374023
7545.129361	0.089033	0.465281	1317.928467
7545.130251	0.088960	0.465281	1397.102783
7545.131196	0.088989	0.465281	1481.197632
7545.132111	0.088975	0.465281	1562.609375
7545.133008	0.089070	0.465281	1642.505005
7545.133938	0.089019	0.465281	1725.292236
7546.068969	0.880682	0.505717	410.397980
7546.069886	0.551162	0.505717	915.813599
7546.070777	0.095314	0.505717	1000.738098
7546.071695	0.088923	0.505717	1082.369751
7546.072639	0.088982	0.505717	1166.368652
7546.073560	0.089022	0.505717	1248.358154
7546.074450	0.088982	0.505717	1327.552124
7546.075389	0.089015	0.505717	1411.137085
7546.076323	0.088997	0.505717	1494.259888
7546.077218	0.089019	0.505717	1573.931519
7546.078131	0.089055	0.505717	1655.238892
7546.079066	0.089062	0.505717	1738.512329
7547.142113	0.872739	0.457639	394.478149
7547.143011	0.588219	0.457639	922.698792
7547.143972	0.094589	0.457639	1013.598450
7547.144869	0.088883	0.457639	1093.326538
7547.145784	0.088978	0.457639	1174.741699
7547.146689	0.088953	0.457639	1255.243896
7547.147641	0.088942	0.457639	1339.916382
7547.148555	0.088960	0.457639	1421.225830
7547.149448	0.088931	0.457639	1500.640869
7547.150379	0.089037	0.457639	1583.534180
7547.151295	0.088978	0.457639	1665.038330
7547.152210	0.088923	0.457639	1746.403198
7548.091909	0.874548	0.509218	428.528687
7548.092845	0.488833	0.509218	886.076416
7548.093763	0.092853	0.509218	971.315247
7548.094654	0.088857	0.509218	1050.487183
7548.095600	0.088861	0.509218	1134.549805
7548.096539	0.088887	0.509218	1218.014404
7548.097440	0.088953	0.509218	1298.160767
7548.098360	0.088905	0.509218	1379.953369
7548.099299	0.088949	0.509218	1463.476440
7548.100223	0.088949	0.509218	1545.665283
7548.101113	0.088912	0.509218	1624.797241
7548.102056	0.088876	0.509218	1708.607056
7549.147612	0.867422	0.467573	392.074677
7549.148513	0.584381	0.467573	918.602051
7549.149406	0.096390	0.467573	1004.678650
7549.150369	0.088876	0.467573	1090.265991
7549.151271	0.089022	0.467573	1170.564087
7549.152163	0.089073	0.467573	1250.017578
7549.153096	0.089004	0.467573	1333.058228
7549.154009	0.088986	0.467573	1414.302124
7549.154928	0.089052	0.467573	1496.140503
7549.155816	0.088975	0.467573	1575.149902
7549.156767	0.089052	0.467573	1659.837891
7549.157669	0.088989	0.467573	1740.106201
7550.122968	0.864005	0.490414	386.210297
7550.123862	0.588596	0.490414	912.415283
7550.124830	0.095039	0.490414	1004.413086
7550.125765	0.089048	0.490414	1087.672852
7550.126661	0.089110	0.490414	1167.515503
7550.127574	0.089022	0.490414	1248.792725
7550.128506	0.089110	0.490414	1331.843384
7550.129422	0.089073	0.490414	1413.434692
7550.130318	0.089125	0.490414	1493.290527
7550.131271	0.089132	0.490414	1578.233398
7550.132207	0.089106	0.490414	1661.637085
7550.133125	0.089106	0.490414	1743.436768
7551.152609	0.868004	0.489471	402.753937
7551.153578	0.504192	0.489471	891.315857
7551.154475	0.093669	0.489471	975.337341
7551.155364	0.088832	0.489471	1054.308838
7551.156320	0.088934	0.489471	1139.330078
7551.157220	0.088909	0.489471	1219.347900
7551.158136	0.088912	0.489471	1300.791626
7551.159035	0.088857	0.489471	1380.674438
7551.159995	0.088898	0.489471	1466.016235
7551.160902	0.088949	0.489471	1546.692993
7551.161822	0.088894	0.489471	1628.475464
7551.162708	0.088887	0.489471	1707.229126
7552.144849	0.871157	0.479880	387.664978
7552.145823	0.511220	0.479880	885.592773
7552.146732	0.093864	0.479880	970.914734
7552.147625	0.088821	0.479880	1050.231689
7552.148554	0.088872	0.479880	1132.793823
7552.149459	0.088923	0.479880	1213.269409
7552.150362	0.088927	0.479880	1293.570435
7552.151256	0.088945	0.479880	1373.087524
7552.152208	0.088923	0.479880	1457.742554
7552.153110	0.088989	0.479880	1538.010864
7552.154014	0.088843	0.479880	1618.324707
7552.154906	0.088971	0.479880	1697.686768
7553.171406	0.860332	0.476190	381.127075
7553.172305	0.584799	0.476190	906.861023
7553.173285	0.094160	0.476190	999.138000
7553.174179	0.088879	0.476190	1078.596191
7553.175070	0.089030	0.476190	1157.921509
7553.176001	0.089062	0.476190	1240.838745
7553.176909	0.088956	0.476190	1321.611084
7553.177825	0.088978	0.476190	1403.115234
7553.178724	0.089088	0.476190	1483.205444
7553.179672	0.089125	0.476190	1567.695679
7553.180582	0.088971	0.476190	1648.659180
7553.181510	0.089070	0.476190	1731.315918
7554.150857	0.850953	0.480101	368.462799
7554.151811	0.555927	0.480101	898.816650
7554.152716	0.094955	0.480101	984.750793
7554.153617	0.088890	0.480101	1064.841064
7554.154507	0.089030	0.480101	1144.077393
7554.155448	0.089048	0.480101	1227.871460
7554.156352	0.089059	0.480101	1308.380615
7554.157241	0.088989	0.480101	1387.492065
7554.158166	0.089073	0.480101	1469.885010
7554.159079	0.089041	0.480101	1551.178955
7554.159988	0.089055	0.480101	1632.130127
7554.160886	0.089037	0.480101	1712.085205
7555.201998	0.857454	0.478615	378.137054
7555.202893	0.596049	0.478615	911.600464
7555.203848	0.094988	0.478615	1002.313782
7555.204784	0.088927	0.478615	1085.549438
7555.205683	0.089008	0.478615	1165.567261
7555.206601	0.088942	0.478615	1247.215698
7555.207539	0.088975	0.478615	1330.673828
7555.208451	0.089011	0.478615	1411.852051
7555.209343	0.088931	0.478615	1491.178223
7555.210286	0.088949	0.478615	1575.057129
7555.211222	0.088982	0.478615	1658.344238
7555.212122	0.088960	0.478615	1738.408203
7556.154318	0.856959	0.481805	377.062073
7556.155280	0.534357	0.481805	891.113159
7556.156187	0.094622	0.481805	976.934937
7556.157077	0.088953	0.481805	1056.102783
7556.158004	0.088956	0.481805	1138.565308
7556.158906	0.089033	0.481805	1218.873291
7556.159815	0.088978	0.481805	1299.754517
7556.160714	0.089004	0.481805	1379.769043
7556.161646	0.089055	0.481805	1462.768433
7556.162552	0.089008	0.481805	1543.409302
7556.163458	0.089000	0.481805	1624.043579
7556.164346	0.088949	0.481805	1703.030273
7557.225933	0.858501	0.465184	376.881927
7557.226921	0.531563	0.465184	902.065674
7557.227840	0.093475	0.465184	987.969482
7557.228728	0.088920	0.465184	1066.930176
7557.229640	0.088967	0.465184	1148.068359
7557.230571	0.088982	0.465184	1230.910522
7557.231499	0.088993	0.465184	1313.495972
7557.232395	0.088964	0.465184	1393.207397
7557.233312	0.088975	0.465184	1474.797119
7557.234247	0.088978	0.465184	1557.991821
7557.235167	0.088986	0.465184	1639.858521
7557.236055	0.088953	0.465184	1718.848511
7558.170073	0.867543	0.493725	387.791595
7558.170982	0.572468	0.493725	908.165283
7558.171941	0.094200	0.493725	998.503479
7558.172855	0.088857	0.493725	1079.719116
7558.173747	0.088993	0.493725	1159.100830
7558.174674	0.088964	0.493725	1241.570068
7558.175577	0.088978	0.493725	1321.917480
7558.176474	0.088978	0.493725	1401.730957
7558.177366	0.089008	0.493725	1481.125732
7558.178320	0.089066	0.493725	1566.094849
7558.179230	0.088967	0.493725	1647.055054
7558.180132	0.089015	0.493725	1727.346436
7559.237100	0.889164	0.472057	414.350342
7559.238025	0.541337	0.472057	915.086792
7559.238917	0.094977	0.472057	999.806091
7559.239846	0.088879	0.472057	1082.375000
7559.240787	0.088978	0.472057	1166.103516
7559.241712	0.089011	0.472057	1248.438965
7559.242600	0.088901	0.472057	1327.383423
7559.243543	0.088905	0.472057	1411.220825
7559.244477	0.088997	0.472057	1494.343628
7559.245369	0.089004	0.472057	1573.735107
7559.246283	0.089037	0.472057	1655.114746
7559.247218	0.088982	0.472057	1738.312866
7560.196055	0.868806	0.500815	391.831573
7560.196954	0.593994	0.500815	925.832275
7560.197909	0.095050	0.500815	1016.605103
7560.198810	0.088927	0.500815	1096.728271
7560.199715	0.088949	0.500815	1177.227051
7560.200600	0.089026	0.500815	1256.014893
7560.201528	0.089030	0.500815	1338.634277
7560.202435	0.089004	0.500815	1419.360840
7560.203330	0.088993	0.500815	1499.009521
7560.204252	0.089015	0.500815	1581.081299
7560.205161	0.089041	0.500815	1662.019165
7560.206069	0.088942	0.500815	1742.778198
7561.242101	0.876749	0.484383	422.593140
7561.243044	0.494242	0.484383	888.663269
7561.243973	0.092758	0.484383	974.835083
7561.244868	0.088883	0.484383	1054.385376
7561.245806	0.088931	0.484383	1137.802368
7561.246720	0.088850	0.484383	1219.011353
7561.247638	0.088890	0.484383	1300.612671
7561.248525	0.088986	0.484383	1379.542847
7561.249478	0.088912	0.484383	1464.276367
7561.250396	0.088934	0.484383	1545.918091
7561.251288	0.088916	0.484383	1625.231201
7561.252223	0.088920	0.484383	1708.371094
7562.222565	0.877266	0.493705	401.787659
7562.223467	0.575874	0.493705	921.226013
7562.224424	0.094310	0.493705	1011.480957
7562.225322	0.088817	0.493705	1091.238770
7562.226231	0.088923	0.493705	1172.070068
7562.227125	0.088912	0.493705	1251.557739
7562.228077	0.088931	0.493705	1336.219727
7562.228985	0.088912	0.493705	1416.952148
7562.229890	0.088942	0.493705	1497.444336
7562.230823	0.088989	0.493705	1580.471313
7562.231728	0.089004	0.493705	1661.019897
7562.232624	0.088905	0.493705	1740.678833
7563.251141	0.849946	0.494390	368.876709
7563.252108	0.552220	0.494390	902.873901
7563.253024	0.094431	0.494390	989.372864
7563.253941	0.088810	0.494390	1070.811523
7563.254828	0.088898	0.494390	1149.663818
7563.255771	0.088868	0.494390	1233.466675
7563.256685	0.088854	0.494390	1314.678955
7563.257600	0.088854	0.494390	1395.980103
7563.258492	0.088835	0.494390	1475.221313
7563.259448	0.088854	0.494390	1560.165527
7563.260372	0.088817	0.494390	1642.232544
7563.261264	0.088872	0.494390	1721.506470
7564.243974	0.887179	0.498970	440.927948
7564.244901	0.502053	0.498970	906.331299
7564.245803	0.093680	0.498970	990.831055
7564.246692	0.088806	0.498970	1069.779785
7564.247646	0.089000	0.498970	1154.686035
7564.248551	0.088986	0.498970	1235.218018
7564.249455	0.088982	0.498970	1315.657715
7564.250342	0.088942	0.498970	1394.548950
7564.251288	0.088978	0.498970	1478.722412
7564.252191	0.088872	0.498970	1558.973877
7564.253088	0.088898	0.498970	1638.715088
7564.254017	0.088920	0.498970	1721.321411
7565.266899	0.862372	0.499510	384.617828
7565.267795	0.602303	0.499510	924.281738
7565.268749	0.095405	0.499510	1015.298340
7565.269653	0.088835	0.499510	1095.605591
7565.270564	0.088960	0.499510	1176.648071
7565.271457	0.088872	0.499510	1256.010864
7565.272401	0.088872	0.499510	1339.906128
7565.273325	0.088824	0.499510	1421.979980
7565.274223	0.088923	0.499510	1501.833130
7565.275153	0.088872	0.499510	1584.484131
7565.276072	0.088934	0.499510	1666.214722
7565.276991	0.088949	0.499510	1747.958862
7566.260752	0.928755	0.496855	468.092468
7566.261677	0.485819	0.496855	917.475098
7566.262579	0.093127	0.496855	1001.476074
7566.263470	0.088890	0.496855	1080.677368
7566.264412	0.088960	0.496855	1164.477661
7566.265313	0.088956	0.496855	1244.627319
7566.266209	0.088883	0.496855	1324.266602
7566.267151	0.088971	0.496855	1408.077271
7566.268054	0.088883	0.496855	1488.338623
7566.268954	0.088865	0.496855	1568.316895
7566.269840	0.088953	0.496855	1647.128906
7566.270783	0.089033	0.496855	1731.087158
7567.285234	0.887388	0.493999	423.283936
7567.286184	0.497516	0.493999	895.924011
7567.287117	0.092659	0.493999	982.374573
7567.288020	0.088854	0.493999	1062.609497
7567.288978	0.088912	0.493999	1147.787476
7567.289892	0.088887	0.493999	1229.029907
7567.290781	0.088938	0.493999	1308.095825
7567.291697	0.088879	0.493999	1389.509399
7567.292619	0.088916	0.493999	1471.489990
7567.293540	0.088916	0.493999	1553.381592
7567.294434	0.088879	0.493999	1632.839722
7567.295348	0.088942	0.493999	1714.132324
7568.275910	0.850426	0.495920	370.785736
7568.276869	0.578899	0.495920	925.949829
7568.277773	0.094691	0.495920	1011.550659
7568.278669	0.088898	0.495920	1091.203003
7568.279554	0.088949	0.495920	1169.922852
7568.280481	0.088920	0.495920	1252.351440
7568.281384	0.088865	0.495920	1332.596313
7568.282290	0.088978	0.495920	1413.210693
7568.283178	0.088964	0.495920	1492.210449
7568.284138	0.088989	0.495920	1577.640137
7568.285043	0.088949	0.495920	1658.138916
7568.285936	0.088956	0.495920	1737.576904
7569.305032	0.849767	0.484355	370.498352
7569.305983	0.547200	0.484355	890.885254
7569.306937	0.093025	0.484355	979.630981
7569.307848	0.088857	0.484355	1060.580078
7569.308734	0.088920	0.484355	1139.362915
7569.309673	0.088920	0.484355	1222.858521
7569.310606	0.088927	0.484355	1305.827393
7569.311505	0.088876	0.484355	1385.726685
7569.312437	0.088890	0.484355	1468.572510
7569.313373	0.088824	0.484355	1551.712158
7569.314301	0.088876	0.484355	1634.188843
7569.315191	0.088810	0.484355	1713.229614
7570.290114	0.848251	0.494853	367.292542
7570.291068	0.555747	0.494853	897.475220
7570.291977	0.094658	0.494853	983.519531
7570.292905	0.088799	0.494853	1065.924805
7570.293797	0.088920	0.494853	1145.241211
7570.294744	0.089011	0.494853	1229.534790
7570.295642	0.088879	0.494853	1309.348511
7570.296534	0.088931	0.494853	1388.674683
7570.297471	0.088898	0.494853	1471.971802
7570.298391	0.088912	0.494853	1553.771118
7570.299288	0.088876	0.494853	1633.492676
7570.300175	0.088887	0.494853	1712.335205
7571.322309	0.850580	0.492339	370.002228
7571.323262	0.577299	0.492339	920.167725
7571.324161	0.094915	0.492339	1005.495911
7571.325056	0.088876	0.492339	1085.039673
7571.325946	0.088942	0.492339	1164.197754
7571.326884	0.089033	0.492339	1247.710937
7571.327796	0.088986	0.492339	1328.865845
7571.328700	0.088934	0.492339	1409.262451
7571.329590	0.089022	0.492339	1488.492187
7571.330539	0.089019	0.492339	1572.970825
7571.331451	0.088843	0.492339	1653.995483
7571.332351	0.089019	0.492339	1734.112183
7572.306384	0.861823	0.493258	384.372864
7572.307275	0.600872	0.493258	919.749451
7572.308241	0.094794	0.493258	1011.320190
7572.309148	0.088883	0.493258	1091.937134
7572.310046	0.088934	0.493258	1171.800171
7572.310965	0.089000	0.493258	1253.591431
7572.311912	0.088916	0.493258	1337.794922
7572.312832	0.088876	0.493258	1419.560547
7572.313721	0.088945	0.493258	1498.632935
7572.314649	0.088894	0.493258	1581.126587
7572.315570	0.088978	0.493258	1663.075562
7572.316485	0.088945	0.493258	1744.460571
7573.338096	0.898129	0.495771	430.203613
7573.338997	0.554813	0.495771	930.090332
7573.339934	0.094442	0.495771	1018.582642
7573.340839	0.088854	0.495771	1098.995239
7573.341732	0.088942	0.495771	1178.420166
7573.342625	0.088993	0.495771	1257.890869
7573.343562	0.088949	0.495771	1341.236084
7573.344473	0.088927	0.495771	1422.248535
7573.345372	0.088876	0.495771	1502.147827
7573.346308	0.088920	0.495771	1585.376709
7573.347217	0.089022	0.495771	1666.297852
7573.348122	0.088887	0.495771	1746.740356
7574.323162	0.862482	0.488299	384.666840
7574.324055	0.593837	0.488299	914.963013
7574.325029	0.094691	0.488299	1007.192200
7574.325956	0.088843	0.488299	1089.549438
7574.326842	0.088975	0.488299	1168.380981
7574.327764	0.088938	0.488299	1250.381836
7574.328697	0.088905	0.488299	1333.330200
7574.329605	0.088909	0.488299	1414.059326
7574.330504	0.088912	0.488299	1493.991577
7574.331445	0.088967	0.488299	1577.709839
7574.332371	0.088920	0.488299	1660.049438
7574.333265	0.088953	0.488299	1739.573120
7575.353306	0.870861	0.501842	389.274689
7575.354230	0.565774	0.501842	912.049805
7575.355126	0.095500	0.501842	997.618225
7575.356044	0.088956	0.501842	1079.280151
7575.356959	0.089033	0.501842	1160.745483
7575.357867	0.088989	0.501842	1241.547729
7575.358757	0.089030	0.501842	1320.784058
7575.359700	0.089052	0.501842	1404.759644
7575.360600	0.089041	0.501842	1484.896118
7575.361495	0.088967	0.501842	1564.521851
7575.362385	0.089011	0.501842	1643.741821
7575.363317	0.089143	0.501842	1726.823120
7576.342991	0.852451	0.495498	371.668701
7576.343911	0.594316	0.495498	918.439819
7576.344841	0.095240	0.495498	1007.013489
7576.345759	0.088905	0.495498	1088.628296
7576.346646	0.089008	0.495498	1167.578003
7576.347593	0.089000	0.495498	1251.861206
7576.348503	0.088993	0.495498	1332.844727
7576.349421	0.088982	0.495498	1414.530151
7576.350316	0.088993	0.495498	1494.178833
7576.351263	0.088898	0.495498	1578.364990
7576.352186	0.089008	0.495498	1660.519043
7576.353076	0.088993	0.495498	1739.722778
7577.366489	0.864730	0.482869	382.210754
7577.367419	0.574731	0.482869	916.710999
7577.368312	0.095944	0.482869	1002.388672
7577.369250	0.088978	0.482869	1085.850342
7577.370150	0.089044	0.482869	1165.990112
7577.371060	0.089037	0.482869	1247.013672
7577.371957	0.089048	0.482869	1326.889648
7577.372884	0.089128	0.482869	1409.511719
7577.373793	0.089026	0.482869	1490.436279
7577.374702	0.089092	0.482869	1571.420654
7577.375589	0.089084	0.482869	1650.438599
7577.376529	0.089092	0.482869	1734.184937
7578.362334	0.862178	0.488472	384.531281
7578.363239	0.587670	0.488472	916.372314
7578.364129	0.096647	0.488472	1002.387939
7578.365090	0.088927	0.488472	1087.846802
7578.366026	0.089052	0.488472	1171.198975
7578.366922	0.088942	0.488472	1250.890747
7578.367842	0.088967	0.488472	1332.740601
7578.368782	0.088942	0.488472	1416.345703
7578.369696	0.088942	0.488472	1497.638428
7578.370586	0.088916	0.488472	1576.773682
7578.371531	0.088956	0.488472	1660.837402
7578.372444	0.088960	0.488472	1742.057861
7579.383299	0.886058	0.491014	441.257050
7579.384228	0.513428	0.491014	918.231445
7579.385141	0.093505	0.491014	1003.601196
7579.386029	0.088956	0.491014	1082.594360
7579.386972	0.089055	0.491014	1166.573364
7579.387866	0.088993	0.491014	1246.133057
7579.388783	0.089055	0.491014	1327.796631
7579.389677	0.089019	0.491014	1407.379272
7579.390630	0.089033	0.491014	1492.227905
7579.391528	0.089026	0.491014	1572.173096
7579.392417	0.089026	0.491014	1651.317139
7579.393346	0.089044	0.491014	1734.039185
7580.377550	0.857831	0.491364	377.445557
7580.378497	0.545079	0.491364	893.635681
7580.379449	0.093812	0.491364	982.944946
7580.380367	0.088982	0.491364	1064.630371
7580.381255	0.089073	0.491364	1143.727661
7580.382191	0.088986	0.491364	1227.018188
7580.383122	0.088971	0.491364	1309.850098
7580.384018	0.089077	0.491364	1389.663208
7580.384930	0.089030	0.491364	1470.858154
7580.385870	0.089117	0.491364	1554.628540
7580.386795	0.088967	0.491364	1636.923218
7580.387683	0.089037	0.491364	1715.987915
7581.402085	0.871765	0.483022	394.909607
7581.402992	0.576163	0.483022	917.489685
7581.403919	0.095676	0.483022	1006.181580
7581.404858	0.088865	0.483022	1089.625610
7581.405770	0.089022	0.483022	1170.813843
7581.406658	0.089008	0.483022	1249.852539
7581.407598	0.088934	0.483022	1333.450806
7581.408539	0.088967	0.483022	1417.169067
7581.409442	0.088997	0.483022	1497.532959
7581.410356	0.088986	0.483022	1578.865845
7581.411279	0.089000	0.483022	1661.013062
7581.412214	0.088989	0.483022	1744.218018
7582.387670	0.869887	0.503043	388.839264
7582.388570	0.593218	0.503043	922.735229
7582.389513	0.094867	0.503043	1012.194763
7582.390432	0.088876	0.503043	1093.871582
7582.391335	0.089022	0.503043	1174.258667
7582.392226	0.088960	0.503043	1253.521973
7582.393165	0.089077	0.503043	1337.165405
7582.394062	0.088997	0.503043	1416.995361
7582.394949	0.089011	0.503043	1495.948364
7582.395880	0.089073	0.503043	1578.875732
7582.396787	0.088978	0.503043	1659.578979
7582.397697	0.089070	0.503043	1740.632568
7583.427528	0.856139	0.479251	374.132690
7583.428514	0.532229	0.479251	898.910461
7583.429437	0.093204	0.479251	984.938049
7583.430333	0.088909	0.479251	1064.600220
7583.431248	0.088989	0.479251	1146.025391
7583.432186	0.089030	0.479251	1229.535156
7583.433094	0.089030	0.479251	1310.374023
7583.433988	0.088982	0.479251	1389.923828
7583.434932	0.089030	0.479251	1473.967773
7583.435866	0.089041	0.479251	1557.131592
7583.436762	0.089008	0.479251	1636.882324
7583.437676	0.088938	0.479251	1718.171631
7584.393700	0.880041	0.515772	403.058990
7584.394599	0.577507	0.515772	922.238037
7584.395490	0.096361	0.515772	1008.095764
7584.396434	0.088912	0.515772	1092.029053
7584.397340	0.088879	0.515772	1172.553833
7584.398252	0.088956	0.515772	1253.682007
7584.399140	0.089019	0.515772	1332.730469
7584.400098	0.088927	0.515772	1417.922485
7584.401007	0.088956	0.515772	1498.783813
7584.401902	0.089022	0.515772	1578.458740
7584.402854	0.089041	0.515772	1663.225342
7584.403763	0.088909	0.515772	1744.043335
7585.453526	0.871384	0.474530	393.865692
7585.454423	0.594785	0.474530	927.387939
7585.455377	0.095288	0.474530	1018.292786
7585.456273	0.088945	0.474530	1097.987793
7585.457181	0.088978	0.474530	1178.780029
7585.458071	0.088986	0.474530	1257.977173
7585.459023	0.089066	0.474530	1342.768188
7585.459938	0.089037	0.474530	1424.236938
7585.460839	0.089048	0.474530	1504.468994
7585.461764	0.088975	0.474530	1586.770508
7585.462675	0.089121	0.474530	1667.959839
7585.463586	0.089026	0.474530	1749.062378
7586.401760	0.869766	0.513226	390.524750
7586.402656	0.584615	0.513226	914.340210
7586.403619	0.094226	0.513226	1005.079895
7586.404539	0.088905	0.513226	1086.872559
7586.405430	0.089084	0.513226	1166.246826
7586.406370	0.088997	0.513226	1249.903564
7586.407298	0.088975	0.513226	1332.472046
7586.408208	0.088909	0.513226	1413.378906
7586.409101	0.089019	0.513226	1492.872437
7586.410044	0.088960	0.513226	1576.761719
7586.410967	0.089030	0.513226	1658.936035
7586.411888	0.088989	0.513226	1740.895142
7587.474379	0.855190	0.478462	377.138977
7587.475360	0.508312	0.478462	875.792847
7587.476260	0.093885	0.478462	960.289795
7587.477158	0.088868	0.478462	1040.093628
7587.478048	0.088982	0.478462	1119.287598
7587.478992	0.089022	0.478462	1203.324585
7587.479909	0.088993	0.478462	1284.931152
7587.480808	0.088986	0.478462	1364.929199
7587.481694	0.088982	0.478462	1443.767212
7587.482642	0.088945	0.478462	1528.087402
7587.483550	0.089004	0.478462	1608.902954
7587.484443	0.088978	0.478462	1688.360596
7588.419016	0.855436	0.516380	372.114563
7588.419959	0.552279	0.516380	892.913696
7588.420910	0.093834	0.516380	982.150024
7588.421830	0.088997	0.516380	1064.026855
7588.422726	0.089004	0.516380	1143.774414
7588.423672	0.088971	0.516380	1227.940918
7588.424606	0.088986	0.516380	1311.053467
7588.425512	0.089059	0.516380	1391.740723
7588.426428	0.089008	0.516380	1473.271606
7588.427366	0.089026	0.516380	1556.777832
7588.428284	0.089008	0.516380	1638.486816
7588.429170	0.089055	0.516380	1717.389648
7589.485047	0.871296	0.495473	421.707428
7589.485980	0.520133	0.495473	906.991577
7589.486875	0.094230	0.495473	991.327209
7589.487761	0.088931	0.495473	1070.119751
7589.488692	0.089066	0.495473	1153.040405
7589.489612	0.088960	0.495473	1234.883545
7589.490521	0.089000	0.495473	1315.784790
7589.491411	0.089030	0.495473	1395.021118
7589.492368	0.089125	0.495473	1480.313477
7589.493269	0.088964	0.495473	1560.469727
7589.494160	0.088986	0.495473	1639.755859
7589.495085	0.088993	0.495473	1722.074341
7590.446582	0.879489	0.484097	423.913483
7590.447539	0.505195	0.484097	907.385376
7590.448451	0.092963	0.484097	992.167297
7590.449339	0.088960	0.484097	1071.163696
7590.450271	0.089048	0.484097	1154.156250
7590.451204	0.089019	0.484097	1237.210571
7590.452126	0.089008	0.484097	1319.275513
7590.453014	0.088982	0.484097	1398.291504
7590.453943	0.089011	0.484097	1480.982910
7590.454881	0.088949	0.484097	1564.416992
7590.455781	0.089037	0.484097	1644.550171
7590.456703	0.088956	0.484097	1726.567871
7591.490026	0.887706	0.498599	412.783417
7591.490933	0.559581	0.498599	920.323608
7591.491909	0.094014	0.498599	1012.080933
7591.492821	0.088931	0.498599	1093.185669
7591.493715	0.089004	0.498599	1172.755127
7591.494605	0.088989	0.498599	1251.955566
7591.495537	0.089033	0.498599	1334.934570
7591.496451	0.089000	0.498599	1416.280762
7591.497373	0.089070	0.498599	1498.403076
7591.498269	0.089066	0.498599	1578.206299
7591.499227	0.089048	0.498599	1663.514160
7591.500128	0.088982	0.498599	1743.686890
7592.474096	0.869626	0.491256	403.506683
7592.475018	0.559325	0.491256	919.204224
7592.475909	0.095175	0.491256	1004.004761
7592.476831	0.088934	0.491256	1086.002197
7592.477772	0.088938	0.491256	1169.692871
7592.478689	0.088989	0.491256	1251.296021
7592.479586	0.088997	0.491256	1331.125977
7592.480520	0.088960	0.491256	1414.214600
7592.481448	0.089044	0.491256	1496.847656
7592.482358	0.089000	0.491256	1577.837891
7592.483244	0.089004	0.491256	1656.695312
7592.484183	0.089062	0.491256	1740.324951
7593.499631	0.873904	0.503772	404.617462
7593.500543	0.567946	0.503772	922.583740
7593.501429	0.095837	0.503772	1007.495667
7593.502394	0.088887	0.503772	1093.271362
7593.503296	0.089015	0.503772	1173.562744
7593.504213	0.089008	0.503772	1255.182739
7593.505114	0.088989	0.503772	1335.362061
7593.506045	0.088938	0.503772	1418.163330
7593.506963	0.088964	0.503772	1499.831909
7593.507882	0.088971	0.503772	1581.596191
7593.508770	0.088934	0.503772	1660.569824
7593.509723	0.088964	0.503772	1745.352173
7594.493380	0.849038	0.509299	367.633484
7594.494349	0.550902	0.509299	901.457642
7594.495255	0.094047	0.509299	986.663879
7594.496162	0.088956	0.509299	1067.347290
7594.497049	0.088989	0.509299	1146.280762
7594.497994	0.089117	0.509299	1230.496704
7594.498893	0.088978	0.509299	1310.488159
7594.499790	0.089000	0.509299	1390.321411
7594.500680	0.088997	0.509299	1469.528320
7594.501611	0.089070	0.509299	1552.452271
7594.502526	0.088993	0.509299	1633.880737
7594.503425	0.089048	0.509299	1713.934814
7595.518426	0.863148	0.484311	382.374664
7595.519373	0.552506	0.484311	905.598022
7595.520328	0.093750	0.484311	995.129272
7595.521248	0.088975	0.484311	1076.985962
7595.522138	0.089084	0.484311	1156.271118
7595.523070	0.088905	0.484311	1239.130615
7595.524012	0.089004	0.484311	1322.972290
7595.524909	0.089070	0.484311	1402.867920
7595.525828	0.089048	0.484311	1484.702881
7595.526764	0.089048	0.484311	1568.051636
7595.527687	0.088949	0.484311	1650.151489
7595.528583	0.089004	0.484311	1729.898926
7596.503495	0.854648	0.518540	373.481354
7596.504464	0.537176	0.518540	894.005371
7596.505363	0.094614	0.518540	979.063599
7596.506263	0.088923	0.518540	1059.094604
7596.507173	0.089011	0.518540	1140.094849
7596.508112	0.089088	0.518540	1223.748657
7596.509019	0.088898	0.518540	1304.378906
7596.509919	0.088997	0.518540	1384.475830
7596.510854	0.088982	0.518540	1467.673950
7596.511756	0.088982	0.518540	1547.935669
7596.512655	0.089037	0.518540	1627.979858
7596.513540	0.088967	0.518540	1706.715942
7597.544910	0.856139	0.485322	374.988831
7597.545811	0.591324	0.485322	907.772156
7597.546775	0.094475	0.485322	998.846130
7597.547699	0.088857	0.485322	1080.950439
7597.548597	0.089059	0.485322	1160.925293
7597.549518	0.088971	0.485322	1242.867554
7597.550454	0.088934	0.485322	1326.110107
7597.551371	0.088953	0.485322	1407.679687
7597.552261	0.089041	0.485322	1486.925781
7597.553207	0.089048	0.485322	1571.165039
7597.554137	0.088997	0.485322	1653.931885
7597.555032	0.088923	0.485322	1733.518311
7598.507993	0.870110	0.515969	388.069000
7598.508919	0.565221	0.515969	911.463623
7598.509818	0.095471	0.515969	997.292236
7598.510751	0.088964	0.515969	1080.295288
7598.511658	0.088934	0.515969	1160.958740
7598.512561	0.089008	0.515969	1241.332520
7598.513450	0.089033	0.515969	1320.483032
7598.514405	0.089070	0.515969	1405.544678
7598.515314	0.088971	0.515969	1486.419312
7598.516206	0.088916	0.515969	1565.732422
7598.517138	0.088945	0.515969	1648.629395
7598.518031	0.089084	0.515969	1728.181885
7599.570907	0.858391	0.465624	383.700836
7599.571799	0.600300	0.465624	919.168701
7599.572733	0.095757	0.465624	1008.605591
7599.573665	0.088905	0.465624	1091.465088
7599.574566	0.089022	0.465624	1171.674072
7599.575486	0.088982	0.465624	1253.537476
7599.576422	0.088989	0.465624	1336.831421
7599.577338	0.089011	0.465624	1418.365723
7599.578233	0.088945	0.465624	1497.971802
7599.579182	0.089037	0.465624	1582.467773
7599.580120	0.089073	0.465624	1666.018677
7599.581030	0.088956	0.465624	1746.968872
7600.518609	0.860680	0.518665	383.002563
7600.519511	0.596979	0.518665	921.477417
7600.520451	0.096068	0.518665	1011.781433
7600.521362	0.088920	0.518665	1092.787231
7600.522267	0.089041	0.518665	1173.368896
7600.523154	0.088982	0.518665	1252.295898
7600.524093	0.089161	0.518665	1336.018433
7600.524998	0.089136	0.518665	1416.686279
7600.525891	0.089008	0.518665	1496.170044
7600.526801	0.089041	0.518665	1577.196899
7600.527723	0.089103	0.518665	1659.349609
7600.528632	0.088989	0.518665	1740.240845
7601.592829	0.903519	0.470888	443.627960
7601.593735	0.534833	0.470888	928.186462
7601.594623	0.094874	0.470888	1012.434814
7601.595586	0.088887	0.470888	1098.032715
7601.596500	0.088978	0.470888	1179.358887
7601.597398	0.089000	0.470888	1259.281128
7601.598332	0.088945	0.470888	1342.356079
7601.599249	0.089008	0.470888	1423.976074
7601.600166	0.088989	0.470888	1505.579224
7601.601054	0.088982	0.470888	1584.595215
7601.601999	0.089026	0.470888	1668.724609
7601.602929	0.088942	0.470888	1751.440308
7602.532294	0.848492	0.510036	367.397217
7602.533258	0.556992	0.510036	904.337646
7602.534172	0.094039	0.510036	990.289551
7602.535080	0.088868	0.510036	1070.982056
7602.535976	0.088986	0.510036	1150.713135
7602.536915	0.089044	0.510036	1234.325684
7602.537814	0.088986	0.510036	1314.323730
7602.538712	0.088964	0.510036	1394.213013
7602.539601	0.088905	0.510036	1473.249634
7602.540537	0.089081	0.510036	1556.629272
7602.541448	0.089026	0.510036	1637.731812
7602.542348	0.088978	0.510036	1717.812256
7603.606500	0.874296	0.472194	398.678802
7603.607399	0.589589	0.472194	928.718994
7603.608367	0.094189	0.472194	1019.894409
7603.609261	0.088912	0.472194	1099.382080
7603.610171	0.089022	0.472194	1180.392334
7603.611066	0.089019	0.472194	1260.063965
7603.612016	0.089022	0.472194	1344.635010
7603.612935	0.089011	0.472194	1426.436279
7603.613828	0.089041	0.472194	1505.949463
7603.614765	0.088909	0.472194	1589.256958
7603.615683	0.088956	0.472194	1670.918823
7603.616604	0.089033	0.472194	1752.918457
7604.551652	0.882594	0.521488	404.228058
7604.552552	0.578936	0.521488	925.270020
7604.553508	0.094512	0.521488	1015.623230
7604.554408	0.088905	0.521488	1095.637695
7604.555304	0.088967	0.521488	1175.352417
7604.556192	0.089015	0.521488	1254.397583
7604.557117	0.089055	0.521488	1336.773682
7604.558027	0.088986	0.521488	1417.750610
7604.558926	0.088971	0.521488	1497.735474
7604.559850	0.089011	0.521488	1579.981812
7604.560765	0.089015	0.521488	1661.430420
7604.561672	0.088953	0.521488	1742.110474
7605.619673	0.857974	0.480601	380.940308
7605.620580	0.589303	0.480601	915.438171
7605.621470	0.096797	0.480601	1001.587402
7605.622423	0.089062	0.480601	1086.463989
7605.623361	0.089059	0.480601	1170.001221
7605.624260	0.089084	0.480601	1250.088135
7605.625186	0.089070	0.480601	1332.566772
7605.626119	0.089110	0.480601	1415.706543
7605.627034	0.089095	0.480601	1497.228882
7605.627928	0.089147	0.480601	1576.926025
7605.628850	0.089052	0.480601	1659.031494
7605.629788	0.089180	0.480601	1742.682007
7606.571988	0.861665	0.513061	383.440918
7606.572884	0.600450	0.513061	921.444458
7606.573840	0.094373	0.513061	1011.664612
7606.574759	0.088934	0.513061	1093.395264
7606.575662	0.088923	0.513061	1173.692993
7606.576556	0.089004	0.513061	1253.262451
7606.577492	0.088997	0.513061	1336.563232
7606.578394	0.088861	0.513061	1416.715942
7606.579289	0.088854	0.513061	1496.240112
7606.580235	0.088949	0.513061	1580.385864
7606.581140	0.088942	0.513061	1660.878052
7606.582032	0.088942	0.513061	1740.213989
7607.633876	0.862079	0.482325	386.211334
7607.634767	0.598799	0.482325	919.741089
7607.635729	0.094915	0.482325	1011.048889
7607.636670	0.088806	0.482325	1094.615479
7607.637573	0.088938	0.482325	1174.926514
7607.638499	0.088887	0.482325	1257.235596
7607.639439	0.088916	0.482325	1340.816650
7607.640352	0.088927	0.482325	1422.006958
7607.641242	0.088960	0.482325	1501.181274
7607.642177	0.088938	0.482325	1584.338257
7607.643104	0.088879	0.482325	1666.729492
7607.644024	0.088975	0.482325	1748.586182
7608.590313	0.887131	0.502696	408.967560
7608.591240	0.544135	0.502696	913.380249
7608.592141	0.094849	0.502696	998.838867
7608.593033	0.088938	0.502696	1078.171509
7608.593975	0.089066	0.502696	1162.071777
7608.594867	0.089011	0.502696	1241.469849
7608.595757	0.088993	0.502696	1320.673584
7608.596688	0.089004	0.502696	1403.536255
7608.597602	0.088956	0.502696	1484.842285
7608.598499	0.088997	0.502696	1564.672241
7608.599386	0.089033	0.502696	1643.644653
7608.600338	0.089103	0.502696	1728.470459
7609.649103	0.861947	0.472206	376.670837
7609.650067	0.532928	0.472206	890.413879
7609.650983	0.094252	0.472206	976.748413
7609.651875	0.088916	0.472206	1056.061523
7609.652808	0.088945	0.472206	1139.047485
7609.653708	0.089030	0.472206	1219.174072
7609.654611	0.088942	0.472206	1299.488403
7609.655504	0.088993	0.472206	1378.959106
7609.656440	0.089052	0.472206	1462.311279
7609.657342	0.088949	0.472206	1542.543213
7609.658249	0.088993	0.472206	1623.259766
7609.659141	0.088956	0.472206	1702.608765
7610.608096	0.871091	0.500879	391.119995
7610.608998	0.585238	0.500879	919.004700
7610.609889	0.096566	0.500879	1005.045166
7610.610853	0.088923	0.500879	1090.767212
7610.611758	0.088956	0.500879	1171.272705
7610.612670	0.088949	0.500879	1252.394165
7610.613566	0.088901	0.500879	1332.049805
7610.614505	0.088949	0.500879	1415.572876
7610.615430	0.088997	0.500879	1497.894775
7610.616331	0.088967	0.500879	1578.054321
7610.617255	0.088978	0.500879	1660.270264
7610.618178	0.088956	0.500879	1742.376953
7611.664339	0.858007	0.494124	377.522888
7611.665235	0.607101	0.494124	921.485229
7611.666179	0.095072	0.494124	1011.233215
7611.667088	0.088868	0.494124	1092.014648
7611.667995	0.088905	0.494124	1172.651489
7611.668887	0.088872	0.494124	1251.925415
7611.669836	0.088956	0.494124	1336.344971
7611.670742	0.088909	0.494124	1416.896240
7611.671633	0.088839	0.494124	1496.051880
7611.672522	0.088901	0.494124	1575.085205
7611.673471	0.088960	0.494124	1659.508179
7611.674369	0.088832	0.494124	1739.279175
7612.623316	0.861152	0.484879	378.907043
7612.624221	0.582748	0.484879	906.293762
7612.625188	0.094156	0.484879	997.343079
7612.626104	0.089022	0.484879	1078.887451
7612.626994	0.089110	0.484879	1158.195435
7612.627910	0.089128	0.484879	1239.837036
7612.628853	0.089143	0.484879	1323.898926
7612.629779	0.088997	0.484879	1406.309814
7612.630667	0.089143	0.484879	1485.468872
7612.631610	0.089110	0.484879	1569.499756
7612.632540	0.089139	0.484879	1652.399414
7612.633432	0.089132	0.484879	1731.905273
7613.683227	0.890900	0.479694	464.158722
7613.684138	0.498127	0.479694	917.952881
7613.685057	0.092875	0.479694	1003.304810
7613.685959	0.088978	0.479694	1083.563232
7613.686886	0.088964	0.479694	1166.032471
7613.687792	0.088989	0.479694	1246.656738
7613.688709	0.088956	0.479694	1328.229614
7613.689597	0.089004	0.479694	1407.265137
7613.690548	0.088978	0.479694	1491.883423
7613.691441	0.088997	0.479694	1571.357422
7613.692332	0.089008	0.479694	1650.663208
7613.693274	0.089019	0.479694	1734.518677
7614.638548	0.865393	0.459194	381.638336
7614.639507	0.537718	0.459194	897.310303
7614.640422	0.094512	0.459194	983.788513
7614.641316	0.088883	0.459194	1063.250000
7614.642257	0.088971	0.459194	1146.971680
7614.643155	0.088945	0.459194	1226.844604
7614.644055	0.088920	0.459194	1306.872314
7614.644944	0.088964	0.459194	1385.960937
7614.645873	0.089004	0.459194	1468.645508
7614.646774	0.088964	0.459194	1548.801758
7614.647677	0.088989	0.459194	1629.159058
7614.648567	0.088934	0.459194	1708.310547
7615.700960	0.867642	0.483727	388.703461
7615.701889	0.557769	0.483727	906.870483
7615.702807	0.094574	0.483727	993.689392
7615.703709	0.088909	0.483727	1073.885010
7615.704654	0.088923	0.483727	1157.917603
7615.705589	0.088945	0.483727	1241.081421
7615.706480	0.088931	0.483727	1320.318604
7615.707397	0.088956	0.483727	1401.891479
7615.708331	0.088920	0.483727	1484.942505
7615.709255	0.088953	0.483727	1567.134766
7615.710158	0.088967	0.483727	1647.472168
7615.711087	0.088949	0.483727	1730.105713
7616.653273	0.869586	0.521077	390.444183
7616.654174	0.594818	0.521077	926.375366
7616.655060	0.096932	0.521077	1012.257446
7616.656025	0.088942	0.521077	1098.086182
7616.656927	0.088971	0.521077	1178.338013
7616.657824	0.088949	0.521077	1258.125244
7616.658759	0.088982	0.521077	1341.323364
7616.659662	0.089015	0.521077	1421.703857
7616.660564	0.089011	0.521077	1501.991943
7616.661451	0.088975	0.521077	1580.912476
7616.662395	0.089136	0.521077	1665.056641
7616.663299	0.089052	0.521077	1745.559204
7617.719761	0.859449	0.482309	379.876648
7617.720705	0.579595	0.482309	927.014038
7617.721640	0.094047	0.482309	1014.947632
7617.722574	0.088942	0.482309	1098.019165
7617.723479	0.089030	0.482309	1178.590942
7617.724403	0.089073	0.482309	1260.894897
7617.725344	0.088905	0.482309	1344.554565
7617.726259	0.089015	0.482309	1426.003174
7617.727151	0.088975	0.482309	1505.368530
7617.728102	0.089011	0.482309	1590.018188
7617.729034	0.088945	0.482309	1672.915161
7617.729930	0.089041	0.482309	1752.695435
7618.667466	0.853894	0.522552	374.859497
7618.668362	0.605856	0.522552	917.706177
7618.669314	0.094775	0.522552	1007.932373
7618.670234	0.088931	0.522552	1089.748535
7618.671139	0.088997	0.522552	1170.290405
7618.672033	0.089008	0.522552	1249.863159
7618.672974	0.089037	0.522552	1333.646851
7618.673879	0.088982	0.522552	1414.175537
7618.674767	0.089055	0.522552	1493.256592
7618.675705	0.089037	0.522552	1576.773193
7618.676610	0.089059	0.522552	1657.371460
7618.677508	0.088953	0.522552	1737.250977
7619.738654	0.931406	0.484109	488.056885
7619.739573	0.479425	0.484109	928.648499
7619.740467	0.093186	0.484109	1011.956787
7619.741354	0.088850	0.484109	1090.766846
7619.742286	0.088971	0.484109	1173.687744
7619.743198	0.088843	0.484109	1254.712402
7619.744097	0.088931	0.484109	1334.661133
7619.745029	0.088883	0.484109	1417.500122
7619.745937	0.088894	0.484109	1498.215942
7619.746844	0.088920	0.484109	1578.866089
7619.747737	0.088934	0.484109	1658.284424
7619.748680	0.088931	0.484109	1742.145996
7620.684243	0.869004	0.525178	387.575745
7620.685147	0.585077	0.525178	916.485291
7620.686094	0.094731	0.525178	1006.195984
7620.687006	0.088795	0.525178	1087.177124
7620.687929	0.088898	0.525178	1169.229736
7620.688816	0.088839	0.525178	1248.030029
7620.689763	0.088865	0.525178	1332.184937
7620.690658	0.088839	0.525178	1411.695923
7620.691582	0.088905	0.525178	1493.844116
7620.692467	0.088865	0.525178	1572.489380
7620.693397	0.088788	0.525178	1655.062134
7620.694310	0.088806	0.525178	1736.142090
7621.753803	0.854645	0.483360	375.189056
7621.754740	0.587981	0.483360	926.127197
7621.755671	0.094146	0.483360	1013.776672
7621.756582	0.088795	0.483360	1094.669067
7621.757475	0.088868	0.483360	1174.028564
7621.758413	0.088953	0.483360	1257.466187
7621.759320	0.088916	0.483360	1338.113037
7621.760218	0.088854	0.483360	1417.903687
7621.761111	0.088817	0.483360	1497.217407
7621.762044	0.088967	0.483360	1580.223877
7621.762952	0.088942	0.483360	1660.982910
7621.763853	0.088909	0.483360	1741.089600
7622.704109	0.891903	0.511329	419.194458
7622.705022	0.549921	0.511329	921.271973
7622.705914	0.095083	0.511329	1006.085999
7622.706840	0.088777	0.511329	1088.293335
7622.707780	0.088843	0.511329	1171.805542
7622.708697	0.088883	0.511329	1253.311279
7622.709583	0.088843	0.511329	1332.026001
7622.710536	0.088839	0.511329	1416.689697
7622.711470	0.088894	0.511329	1499.716675
7622.712361	0.088945	0.511329	1578.966919
7622.713281	0.088857	0.511329	1660.715698
7622.714210	0.088781	0.511329	1743.192749
7623.764420	0.849994	0.483678	370.597321
7623.765354	0.587369	0.483678	919.200317
7623.766296	0.094061	0.483678	1007.806030
7623.767183	0.088792	0.483678	1086.564087
7623.768072	0.088920	0.483678	1165.613647
7623.769028	0.088857	0.483678	1250.561279
7623.769920	0.088861	0.483678	1329.825317
7623.770839	0.088854	0.483678	1411.481934
7623.771737	0.088887	0.483678	1491.302246
7623.772678	0.088905	0.483678	1574.961914
7623.773585	0.088832	0.483678	1655.532349
7623.774479	0.088876	0.483678	1734.987305
7624.728069	0.884850	0.523623	429.152161
7624.728976	0.536257	0.523623	915.537598
7624.729864	0.094819	0.523623	999.737183
7624.730809	0.088762	0.523623	1083.617432
7624.731746	0.088850	0.523623	1166.869995
7624.732645	0.088868	0.523623	1246.762695
7624.733568	0.088883	0.523623	1328.801758
7624.734502	0.088824	0.523623	1411.763794
7624.735431	0.088865	0.523623	1494.319092
7624.736330	0.088821	0.523623	1574.168945
7624.737246	0.088861	0.523623	1655.565674
7624.738184	0.088846	0.523623	1738.903564
7625.771981	0.856849	0.499941	376.156860
7625.772951	0.531888	0.499941	892.088623
7625.773872	0.093680	0.499941	978.368286
7625.774763	0.088824	0.499941	1057.510864
7625.775685	0.088898	0.499941	1139.474609
7625.776587	0.088949	0.499941	1219.706543
7625.777517	0.088931	0.499941	1302.412109
7625.778415	0.088927	0.499941	1382.268555
7625.779354	0.088824	0.499941	1465.674683
7625.780265	0.088850	0.499941	1546.617065
7625.781190	0.088843	0.499941	1628.796631
7625.782078	0.088824	0.499941	1707.672729
7626.753479	0.855839	0.530318	374.857300
7626.754441	0.556088	0.530318	909.813660
7626.755353	0.093805	0.530318	995.363770
7626.756255	0.088865	0.530318	1075.519775
7626.757146	0.088883	0.530318	1154.714600
7626.758082	0.088934	0.530318	1237.957153
7626.758981	0.088934	0.530318	1317.909058
7626.759876	0.088920	0.530318	1397.492187
7626.760769	0.088956	0.530318	1476.930176
7626.761713	0.088927	0.530318	1560.877319
7626.762621	0.088843	0.530318	1641.546509
7626.763511	0.088890	0.530318	1720.658936
7627.782090	0.853835	0.508106	374.833771
7627.783048	0.539634	0.508106	891.802979
7627.783994	0.093062	0.508106	979.839172
7627.784909	0.088839	0.508106	1061.126953
7627.785795	0.088890	0.508106	1139.883789
7627.786745	0.088905	0.508106	1224.343506
7627.787685	0.088839	0.508106	1307.852295
7627.788578	0.088898	0.508106	1387.237915
7627.789502	0.088868	0.508106	1469.352295
7627.790428	0.088876	0.508106	1551.651245
7627.791348	0.088945	0.508106	1633.480957
7627.792244	0.088846	0.508106	1713.087402
7628.773835	0.850327	0.517798	369.892303
7628.774795	0.551722	0.517798	899.545776
7628.775706	0.094801	0.517798	985.909485
7628.776604	0.088854	0.517798	1065.700195
7628.777495	0.088872	0.517798	1144.885254
7628.778432	0.088920	0.517798	1228.203003
7628.779335	0.088821	0.517798	1308.408203
7628.780226	0.088905	0.517798	1387.622559
7628.781145	0.088949	0.517798	1469.366699
7628.782059	0.088828	0.517798	1550.555664
7628.782963	0.088883	0.517798	1630.906006
7628.783849	0.088923	0.517798	1709.692139
7629.796852	0.868780	0.514757	408.326843
7629.797788	0.530717	0.514757	905.077515
7629.798712	0.093424	0.514757	991.401367
7629.799609	0.088770	0.514757	1071.027588
7629.800556	0.088971	0.514757	1155.283081
7629.801477	0.088894	0.514757	1237.154541
7629.802392	0.088890	0.514757	1318.489258
7629.803281	0.088854	0.514757	1397.480225
7629.804219	0.088942	0.514757	1480.907471
7629.805148	0.088938	0.514757	1563.530884
7629.806048	0.088945	0.514757	1643.581665
7629.806967	0.088927	0.514757	1725.305542
7630.790118	0.869381	0.517452	405.131592
7630.791027	0.559208	0.517452	913.451416
7630.791969	0.095394	0.517452	1003.312866
7630.792880	0.088890	0.517452	1084.291992
7630.793803	0.088945	0.517452	1166.388550
7630.794696	0.088927	0.517452	1245.800415
7630.795647	0.088953	0.517452	1330.394409
7630.796546	0.088986	0.517452	1410.392456
7630.797459	0.088850	0.517452	1491.512573
7630.798350	0.088854	0.517452	1570.681274
7630.799307	0.088806	0.517452	1655.668701
7630.800225	0.088857	0.517452	1737.239868
7631.817689	0.869161	0.496658	385.907654
7631.818617	0.562936	0.496658	908.312073
7631.819521	0.094995	0.496658	994.187683
7631.820446	0.088850	0.496658	1076.374023
7631.821359	0.088912	0.496658	1157.551025
7631.822267	0.088920	0.496658	1238.290039
7631.823160	0.088923	0.496658	1317.698608
7631.824092	0.088967	0.496658	1400.616089
7631.824996	0.088960	0.496658	1481.035889
7631.825894	0.088909	0.496658	1560.875854
7631.826784	0.088953	0.496658	1640.043701
7631.827729	0.089000	0.496658	1724.148926
7632.799723	0.886794	0.513129	411.472626
7632.800639	0.556956	0.513129	921.643921
7632.801529	0.095559	0.513129	1006.691528
7632.802469	0.088748	0.513129	1090.114258
7632.803403	0.088883	0.513129	1173.130981
7632.804316	0.088872	0.513129	1254.271240
7632.805202	0.088802	0.513129	1332.950195
7632.806146	0.088821	0.513129	1416.796997
7632.807075	0.088839	0.513129	1499.328491
7632.807971	0.088843	0.513129	1578.931641
7632.808896	0.088781	0.513129	1661.053589
7632.809833	0.088846	0.513129	1744.302734
7633.844218	0.896462	0.474715	433.887817
7633.845155	0.505184	0.474715	907.245483
7633.846056	0.093669	0.474715	991.641663
7633.846944	0.088821	0.474715	1070.514526
7633.847892	0.088927	0.474715	1154.817383
7633.848794	0.088901	0.474715	1235.006470
7633.849680	0.088938	0.474715	1313.805542
7633.850598	0.088879	0.474715	1395.396851
7633.851525	0.088920	0.474715	1477.825439
7633.852436	0.088879	0.474715	1558.794556
7633.853324	0.088872	0.474715	1637.712891
7633.854258	0.088912	0.474715	1720.757080
7634.806757	0.860577	0.517601	391.562714
7634.807652	0.588007	0.517601	917.828613
7634.808579	0.096218	0.517601	1007.022949
7634.809516	0.088887	0.517601	1090.309814
7634.810435	0.088887	0.517601	1171.996704
7634.811331	0.088949	0.517601	1251.694946
7634.812249	0.088920	0.517601	1333.323242
7634.813194	0.088835	0.517601	1417.272705
7634.814107	0.088854	0.517601	1498.396240
7634.814996	0.088839	0.517601	1577.374268
7634.815937	0.089004	0.517601	1661.126953
7634.816867	0.088854	0.517601	1743.760986
7635.868650	0.872933	0.489983	402.422272
7635.869590	0.537327	0.489983	907.509277
7635.870477	0.094636	0.489983	991.451599
7635.871426	0.088843	0.489983	1075.763428
7635.872336	0.088876	0.489983	1156.640381
7635.873230	0.088846	0.489983	1236.069092
7635.874140	0.088978	0.489983	1317.039307
7635.875067	0.088854	0.489983	1399.406738
7635.875969	0.088832	0.489983	1479.532959
7635.876862	0.088901	0.489983	1558.921875
7635.877815	0.088927	0.489983	1643.669312
7635.878724	0.088773	0.489983	1724.364136
7636.817375	0.862434	0.531527	383.783173
7636.818281	0.587194	0.531527	915.780640
7636.819203	0.096189	0.531527	1004.466858
7636.820142	0.088887	0.531527	1087.931519
7636.821055	0.088931	0.531527	1169.125244
7636.821953	0.088986	0.531527	1249.034302
7636.822901	0.089015	0.531527	1333.420410
7636.823834	0.089022	0.531527	1416.478149
7636.824735	0.089015	0.531527	1496.680542
7636.825638	0.088923	0.531527	1576.978271
7636.826568	0.088905	0.531527	1659.659912
7636.827495	0.088868	0.531527	1742.040894
7637.887945	0.863405	0.473910	379.034607
7637.888933	0.505096	0.473910	878.069885
7637.889870	0.092754	0.473910	964.980286
7637.890766	0.088802	0.473910	1044.547363
7637.891679	0.088865	0.473910	1125.680908
7637.892616	0.088923	0.473910	1209.002075
7637.893529	0.088945	0.473910	1290.209106
7637.894418	0.088872	0.473910	1369.216431
7637.895364	0.088788	0.473910	1453.209717
7637.896305	0.088868	0.473910	1536.834839
7637.897197	0.088927	0.473910	1616.157715
7637.898111	0.088912	0.473910	1697.423584
7638.833620	0.857036	0.532591	377.952911
7638.834546	0.575328	0.532591	910.706909
7638.835438	0.096050	0.532591	996.383301
7638.836348	0.088898	0.532591	1077.280273
7638.837256	0.089037	0.532591	1158.125732
7638.838158	0.088956	0.532591	1238.364258
7638.839061	0.089004	0.532591	1318.734741
7638.839949	0.088997	0.532591	1397.763672
7638.840892	0.088931	0.532591	1481.625244
7638.841800	0.088909	0.532591	1562.354370
7638.842689	0.089019	0.532591	1641.491821
7638.843625	0.089022	0.532591	1724.816650
7639.902682	0.880854	0.481761	397.265381
7639.903629	0.523088	0.481761	892.630005
7639.904558	0.093457	0.481761	979.451599
7639.905456	0.088883	0.481761	1059.268555
7639.906399	0.088967	0.481761	1143.164673
7639.907334	0.089044	0.481761	1226.421021
7639.908232	0.089041	0.481761	1306.379395
7639.909162	0.088982	0.481761	1389.132568
7639.910112	0.089008	0.481761	1473.689697
7639.911035	0.089081	0.481761	1555.911255
7639.911926	0.088978	0.481761	1635.190918
7639.912866	0.088942	0.481761	1718.796021
7640.851930	0.860460	0.522898	391.509369
7640.852827	0.588534	0.522898	919.424316
7640.853770	0.096259	0.522898	1010.196106
7640.854700	0.088872	0.522898	1092.847168
7640.855607	0.088975	0.522898	1173.547119
7640.856494	0.089030	0.522898	1252.516357
7640.857435	0.089022	0.522898	1336.286255
7640.858345	0.089022	0.522898	1417.296509
7640.859265	0.089000	0.522898	1499.176758
7640.860152	0.088997	0.522898	1578.116699
7640.861095	0.088960	0.522898	1662.005981
7640.861991	0.088982	0.522898	1741.733765
7641.914836	0.859933	0.484383	383.530060
7641.915725	0.602538	0.484383	919.186157
7641.916672	0.095002	0.484383	1009.153442
7641.917586	0.088850	0.484383	1090.362427
7641.918487	0.089052	0.484383	1170.597900
7641.919416	0.089055	0.484383	1253.330200
7641.920333	0.089011	0.484383	1334.953491
7641.921243	0.088945	0.484383	1415.893677
7641.922140	0.088967	0.484383	1495.697266
7641.923073	0.088971	0.484383	1578.707153
7641.923974	0.088986	0.484383	1658.883179
7641.924877	0.089052	0.484383	1739.296753
7642.872821	0.897341	0.528884	428.031799
7642.873748	0.519005	0.528884	909.149536
7642.874644	0.094365	0.528884	993.700806
7642.875598	0.088967	0.528884	1078.575562
7642.876540	0.088986	0.528884	1162.400024
7642.877435	0.088978	0.528884	1242.035645
7642.878353	0.089041	0.528884	1323.774902
7642.879295	0.088945	0.528884	1407.561401
7642.880217	0.089015	0.528884	1489.633179
7642.881106	0.088942	0.528884	1568.702271
7642.882049	0.088927	0.528884	1652.560425
7642.882984	0.089004	0.528884	1735.779053
7643.928020	0.855659	0.483916	379.912689
7643.928925	0.593811	0.483916	917.311646
7643.929813	0.096899	0.483916	1003.358337
7643.930777	0.088865	0.483916	1089.023926
7643.931679	0.088942	0.483916	1169.249268
7643.932599	0.088956	0.483916	1251.089111
7643.933484	0.088956	0.483916	1329.815430
7643.934428	0.088945	0.483916	1413.779785
7643.935356	0.089008	0.483916	1496.378784
7643.936253	0.088916	0.483916	1576.136475
7643.937163	0.088890	0.483916	1657.026733
7643.938102	0.088934	0.483916	1740.536011
7644.892106	0.859911	0.520002	378.360809
7644.893097	0.494703	0.520002	868.611816
7644.894011	0.093417	0.520002	953.994751
7644.894906	0.088905	0.520002	1033.564697
7644.895827	0.089117	0.520002	1115.641846
7644.896724	0.089059	0.520002	1195.527588
7644.897625	0.088960	0.520002	1275.680542
7644.898522	0.089073	0.520002	1355.579468
7644.899454	0.088997	0.520002	1438.524292
7644.900356	0.089000	0.520002	1518.802490
7644.901263	0.088964	0.520002	1599.492432
7644.902156	0.088927	0.520002	1678.904297
7645.941720	0.871340	0.481946	394.717163
7645.942667	0.530687	0.481946	897.278015
7645.943556	0.094706	0.481946	981.471497
7645.944484	0.088872	0.481946	1063.944824
7645.945423	0.088975	0.481946	1147.491943
7645.946343	0.089004	0.481946	1229.375488
7645.947233	0.088986	0.481946	1308.572632
7645.948175	0.089030	0.481946	1392.438477
7645.949106	0.088993	0.481946	1475.290894
7645.950011	0.088960	0.481946	1555.799683
7645.950935	0.088934	0.481946	1637.974976
7645.951864	0.088912	0.481946	1720.574585
7646.910925	0.854407	0.524542	373.375732
7646.911824	0.605284	0.524542	917.526428
7646.912776	0.094878	0.524542	1007.850220
7646.913683	0.089037	0.524542	1088.606689
7646.914579	0.089136	0.524542	1168.472290
7646.915466	0.089000	0.524542	1247.415527
7646.916416	0.089154	0.524542	1332.111938
7646.917316	0.089052	0.524542	1412.258301
7646.918227	0.089073	0.524542	1493.404297
7646.919118	0.089154	0.524542	1572.840576
7646.920059	0.089117	0.524542	1656.700073
7646.920967	0.089084	0.524542	1737.588745
7647.957451	0.847533	0.482454	366.981781
7647.958385	0.589153	0.482454	917.250610
7647.959317	0.094731	0.482454	1005.540283
7647.960252	0.088824	0.482454	1088.591187
7647.961145	0.088934	0.482454	1168.009521
7647.962087	0.088978	0.482454	1251.827026
7647.963023	0.088942	0.482454	1335.076416
7647.963916	0.088975	0.482454	1414.530762
7647.964841	0.089008	0.482454	1496.862793
7647.965778	0.088942	0.482454	1580.201172
7647.966692	0.088923	0.482454	1661.477051
7647.967593	0.088876	0.482454	1741.554077
7648.928717	0.850624	0.519833	370.871979
7648.929612	0.614773	0.519833	921.093750
7648.930568	0.094779	0.519833	1011.702515
7648.931492	0.088909	0.519833	1093.854126
7648.932413	0.088997	0.519833	1175.819946
7648.933309	0.088978	0.519833	1255.544434
7648.934249	0.088934	0.519833	1339.142700
7648.935166	0.088894	0.519833	1420.658569
7648.936054	0.089004	0.519833	1499.694092
7648.936990	0.088971	0.519833	1582.970947
7648.937897	0.088927	0.519833	1663.627686
7648.938816	0.088956	0.519833	1745.378540
7649.974224	0.855604	0.490305	376.465851
7649.975118	0.596591	0.490305	909.817871
7649.976075	0.095010	0.490305	1000.742187
7649.976986	0.088887	0.490305	1081.718018
7649.977886	0.088953	0.490305	1161.775391
7649.978825	0.089000	0.490305	1245.346680
7649.979720	0.088989	0.490305	1324.992065
7649.980621	0.088989	0.490305	1405.171387
7649.981514	0.088945	0.490305	1484.599609
7649.982459	0.089030	0.490305	1568.732544
7649.983364	0.088942	0.490305	1649.224731
7649.984272	0.089015	0.490305	1730.050293
7650.944493	0.891094	0.527172	421.487335
7650.945440	0.503243	0.527172	898.058838
7650.946335	0.093831	0.527172	982.037170
7650.947259	0.088909	0.527172	1064.188843
7650.948205	0.088934	0.527172	1148.320679
7650.949125	0.088949	0.527172	1230.153687
7650.950014	0.088986	0.527172	1309.261841
7650.950961	0.088945	0.527172	1393.493042
7650.951898	0.088938	0.527172	1476.827881
7650.952792	0.088971	0.527172	1556.367920
7650.953706	0.088964	0.527172	1637.680664
7650.954651	0.088975	0.527172	1721.761719
7651.991494	0.852202	0.492815	373.264526
7651.992387	0.593928	0.492815	903.642395
7651.993354	0.094420	0.492815	994.946716
7651.994261	0.088890	0.492815	1075.570312
7651.995150	0.088971	0.492815	1154.665527
7651.996094	0.088960	0.492815	1238.643677
7651.997013	0.088949	0.492815	1320.387817
7651.997933	0.088978	0.492815	1402.247803
7651.998827	0.088975	0.492815	1481.791138
7651.999761	0.089066	0.492815	1564.978882
7652.000665	0.088934	0.492815	1645.375488
7652.001585	0.088997	0.492815	1727.252319
7652.958695	0.867850	0.527325	394.004059
7652.959603	0.578943	0.527325	919.684204
7652.960544	0.095750	0.527325	1009.784485
7652.961461	0.088879	0.527325	1091.286865
7652.962397	0.089000	0.527325	1174.591064
7652.963295	0.088920	0.527325	1254.440918
7652.964219	0.088971	0.527325	1336.650024
7652.965161	0.088927	0.527325	1420.419312
7652.966085	0.089015	0.527325	1502.669067
7652.966987	0.089103	0.527325	1583.039795
7652.967907	0.089000	0.527325	1664.920044
7652.968844	0.088964	0.527325	1748.278931
7654.010853	0.885033	0.493616	406.230133
7654.011803	0.516438	0.493616	896.846252
7654.012691	0.094288	0.493616	980.574280
7654.013657	0.088835	0.493616	1066.389282
7654.014583	0.088938	0.493616	1148.745850
7654.015471	0.088934	0.493616	1227.719482
7654.016418	0.088949	0.493616	1311.954102
7654.017312	0.088920	0.493616	1391.448242
7654.018234	0.088945	0.493616	1473.455811
7654.019121	0.089022	0.493616	1552.418457
7654.020060	0.088938	0.493616	1635.931274
7654.020972	0.088934	0.493616	1717.039429
7654.970827	0.851085	0.532401	369.370972
7654.971778	0.553678	0.532401	895.918701
7654.972688	0.094709	0.532401	982.104309
7654.973589	0.088901	0.532401	1062.204468
7654.974477	0.088927	0.532401	1141.171631
7654.975415	0.089041	0.532401	1224.691650
7654.976320	0.088975	0.532401	1305.213623
7654.977212	0.089000	0.532401	1384.601807
7654.978134	0.089055	0.532401	1466.710693
7654.979041	0.089000	0.532401	1547.433960
7654.979950	0.089033	0.532401	1628.365112
7654.980851	0.089000	0.532401	1708.554321
7656.032204	0.858351	0.487578	377.674347
7656.033134	0.581917	0.487578	918.856689
7656.034089	0.094666	0.487578	1009.262268
7656.035004	0.088949	0.487578	1090.650635
7656.035894	0.089022	0.487578	1169.880371
7656.036819	0.088909	0.487578	1252.120850
7656.037751	0.088967	0.487578	1335.038330
7656.038668	0.088960	0.487578	1416.614624
7656.039555	0.088978	0.487578	1495.538330
7656.040500	0.088942	0.487578	1579.588135
7656.041440	0.089000	0.487578	1663.248413
7656.042337	0.089000	0.487578	1743.081665
7656.984013	0.849935	0.535998	373.121582
7656.984972	0.536232	0.535998	887.367798
7656.985887	0.094182	0.535998	973.544434
7656.986796	0.088942	0.535998	1054.392334
7656.987683	0.088997	0.535998	1133.332275
7656.988641	0.089041	0.535998	1218.633057
7656.989550	0.089048	0.535998	1299.577515
7656.990449	0.088982	0.535998	1379.572266
7656.991379	0.089008	0.535998	1462.349365
7656.992278	0.089062	0.535998	1542.416504
7656.993178	0.089022	0.535998	1622.536499
7656.994065	0.089015	0.535998	1701.492676
7658.051555	0.879562	0.479876	400.200592
7658.052465	0.572161	0.479876	920.866821
7658.053364	0.095969	0.479876	1007.143188
7658.054311	0.088817	0.479876	1091.253052
7658.055255	0.088956	0.479876	1175.227783
7658.056152	0.089004	0.479876	1255.064331
7658.057080	0.088909	0.479876	1337.571655
7658.058020	0.088956	0.479876	1421.190552
7658.058938	0.088986	0.479876	1502.879395
7658.059825	0.088920	0.479876	1581.751099
7658.060759	0.088975	0.479876	1664.853394
7658.061698	0.088931	0.479876	1748.359253
7658.998799	0.908705	0.535100	462.530762
7658.999705	0.517178	0.535100	931.093811
7659.000623	0.093475	0.535100	1016.904175
7659.001524	0.088934	0.535100	1097.034058
7659.002455	0.088912	0.535100	1179.811401
7659.003361	0.089008	0.535100	1260.452271
7659.004248	0.088894	0.535100	1339.301270
7659.005160	0.089015	0.535100	1420.482910
7659.006094	0.088920	0.535100	1503.533936
7659.006986	0.088978	0.535100	1582.902588
7659.007878	0.088927	0.535100	1662.225464
7659.008812	0.088927	0.535100	1745.283325
7660.069338	0.872593	0.495349	394.411926
7660.070245	0.579573	0.495349	920.084412
7660.071188	0.095215	0.495349	1009.872009
7660.072098	0.088945	0.495349	1090.812256
7660.073001	0.088949	0.495349	1171.133179
7660.073889	0.088960	0.495349	1250.129639
7660.074835	0.089095	0.495349	1334.413940
7660.075744	0.089011	0.495349	1415.325195
7660.076641	0.089030	0.495349	1495.184692
7660.077560	0.089011	0.495349	1576.985962
7660.078477	0.089037	0.495349	1658.632812
7660.079389	0.088953	0.495349	1739.757568
7661.014986	0.854235	0.528965	373.300537
7661.015963	0.517115	0.528965	878.522339
7661.016868	0.093959	0.528965	963.554993
7661.017787	0.088905	0.528965	1045.258667
7661.018677	0.088975	0.528965	1124.446045
7661.019622	0.088942	0.528965	1208.495850
7661.020542	0.088953	0.528965	1290.332275
7661.021428	0.089019	0.528965	1369.202759
7661.022366	0.089052	0.528965	1452.733032
7661.023276	0.089033	0.528965	1533.753296
7661.024192	0.089022	0.528965	1615.297607
7661.025088	0.089015	0.528965	1695.054932
7662.084606	0.883748	0.495864	434.803802
7662.085536	0.515131	0.495864	913.875244
7662.086428	0.094135	0.495864	997.843262
7662.087315	0.088857	0.495864	1076.659790
7662.088269	0.089011	0.495864	1161.576538
7662.089174	0.088887	0.495864	1242.019043
7662.090074	0.088945	0.495864	1322.069824
7662.090965	0.088923	0.495864	1401.300537
7662.091916	0.089015	0.495864	1485.953735
7662.092820	0.088872	0.495864	1566.294067
7662.093709	0.088956	0.495864	1645.376221
7662.094638	0.089037	0.495864	1728.091431
7663.035342	0.861134	0.517395	381.482391
7663.036296	0.555762	0.517395	911.679077
7663.037245	0.093567	0.517395	1000.474060
7663.038155	0.088912	0.517395	1081.384277
7663.039050	0.088960	0.517395	1161.003418
7663.039991	0.088964	0.517395	1244.718140
7663.040928	0.088993	0.517395	1328.104492
7663.041825	0.088993	0.517395	1407.931152
7663.042750	0.089041	0.517395	1490.293701
7663.043685	0.088964	0.517395	1573.474731
7663.044610	0.089030	0.517395	1655.827026
7663.045506	0.089041	0.517395	1735.607300
7664.094154	0.851235	0.503679	374.543549
7664.095124	0.528574	0.503679	887.260498
7664.096026	0.094318	0.503679	972.334961
7664.096945	0.088971	0.503679	1054.099243
7664.097836	0.089041	0.503679	1133.434326
7664.098773	0.088993	0.503679	1216.820679
7664.099671	0.089015	0.503679	1296.756104
7664.100560	0.089041	0.503679	1375.913086
7664.101491	0.089026	0.503679	1458.796143
7664.102400	0.088938	0.503679	1539.640747
7664.103323	0.088894	0.503679	1621.689941
7664.104209	0.088975	0.503679	1700.521484
7665.059792	0.870513	0.516683	388.248657
7665.060789	0.475997	0.516683	862.817993
7665.061699	0.092952	0.516683	947.403992
7665.062601	0.088920	0.516683	1027.609497
7665.063489	0.089004	0.516683	1106.645020
7665.064440	0.089011	0.516683	1191.294678
7665.065348	0.088912	0.516683	1272.027100
7665.066241	0.088997	0.516683	1351.501099
7665.067184	0.088993	0.516683	1435.421387
7665.068078	0.088945	0.516683	1514.938477
7665.068987	0.089004	0.516683	1595.843018
7665.069874	0.088986	0.516683	1674.773193
7666.102261	0.879968	0.513540	423.264709
7666.103203	0.506169	0.513540	900.076294
7666.104133	0.093032	0.513540	986.596252
7666.105020	0.089070	0.513540	1065.601196
7666.105968	0.089037	0.513540	1150.008179
7666.106907	0.089037	0.513540	1233.613770
7666.107805	0.089216	0.513540	1313.729980
7666.108721	0.089114	0.513540	1395.358154
7666.109632	0.089048	0.513540	1476.480713
7666.110568	0.089059	0.513540	1559.839844
7666.111470	0.089169	0.513540	1640.270020
7666.112399	0.089077	0.513540	1723.022705
7667.084755	0.861379	0.514044	380.729675
7667.085656	0.601864	0.514044	923.009155
7667.086545	0.097386	0.514044	1009.585754
7667.087509	0.089117	0.514044	1095.494995
7667.088415	0.089081	0.514044	1176.202148
7667.089316	0.089158	0.514044	1256.533203
7667.090203	0.089041	0.514044	1335.512207
7667.091152	0.089202	0.514044	1420.164551
7667.092068	0.089084	0.514044	1501.765869
7667.092965	0.089128	0.514044	1581.714111
7667.093858	0.089062	0.514044	1661.246948
7667.094789	0.089154	0.514044	1744.249390
7668.112393	0.899509	0.514580	451.553650
7668.113335	0.490734	0.514580	913.824707
7668.114256	0.092933	0.514580	999.416321
7668.115142	0.088843	0.514580	1078.130981
7668.116073	0.088861	0.514580	1160.860596
7668.117009	0.088846	0.514580	1244.020874
7668.117912	0.088909	0.514580	1324.305420
7668.118832	0.088901	0.514580	1406.094727
7668.119764	0.088901	0.514580	1488.950806
7668.120689	0.088942	0.514580	1571.221802
7668.121581	0.088872	0.514580	1650.495728
7668.122508	0.088839	0.514580	1732.849609
7669.105614	0.853528	0.515583	375.552246
7669.106512	0.593749	0.515583	908.738647
7669.107457	0.094929	0.515583	998.446777
7669.108372	0.088894	0.515583	1079.784790
7669.109268	0.088971	0.515583	1159.502808
7669.110200	0.088978	0.515583	1242.430542
7669.111107	0.089041	0.515583	1323.190308
7669.112009	0.088920	0.515583	1403.395874
7669.112898	0.088945	0.515583	1482.468262
7669.113846	0.089110	0.515583	1566.944580
7669.114748	0.088978	0.515583	1647.203003
7669.115646	0.088927	0.515583	1727.059448
7670.127561	0.848335	0.513553	367.329041
7670.128500	0.577236	0.513553	909.353943
7670.129428	0.094277	0.513553	996.843323
7670.130347	0.088813	0.513553	1078.462891
7670.131236	0.088901	0.513553	1157.496216
7670.132181	0.088898	0.513553	1241.504517
7670.133122	0.088931	0.513553	1325.188232
7670.134019	0.088938	0.513553	1404.965576
7670.134937	0.088872	0.513553	1486.550171
7670.135876	0.088890	0.513553	1570.018188
7670.136797	0.088953	0.513553	1651.943604
7670.137697	0.088905	0.513553	1731.958130
7671.122896	0.870524	0.532127	389.124084
7671.123876	0.498094	0.532127	877.256714
7671.124787	0.093354	0.532127	962.302673
7671.125686	0.088927	0.532127	1042.248047
7671.126620	0.088986	0.532127	1125.360596
7671.127519	0.088967	0.532127	1205.342163
7671.128419	0.088942	0.532127	1285.389648
7671.129304	0.088971	0.532127	1364.128906
7671.130255	0.089106	0.532127	1448.869141
7671.131156	0.088993	0.532127	1529.051758
7671.132061	0.088898	0.532127	1609.504150
7671.132951	0.088938	0.532127	1688.658936
7672.145924	0.911001	0.508481	444.568481
7672.146860	0.508315	0.508481	920.351685
7672.147749	0.093739	0.508481	1003.685669
7672.148666	0.088762	0.508481	1085.080566
7672.149600	0.088806	0.508481	1168.025513
7672.150511	0.088872	0.508481	1248.987915
7672.151407	0.088879	0.508481	1328.623901
7672.152355	0.088857	0.508481	1412.860718
7672.153290	0.088821	0.508481	1495.908203
7672.154191	0.088795	0.508481	1575.912598
7672.155111	0.088857	0.508481	1657.661377
7672.156042	0.088828	0.508481	1740.360352
7673.134548	0.862559	0.529493	384.701141
7673.135451	0.598729	0.529493	925.353638
7673.136390	0.096647	0.529493	1016.104919
7673.137299	0.089015	0.529493	1097.019409
7673.138202	0.088901	0.529493	1177.297363
7673.139092	0.089004	0.529493	1256.510864
7673.140029	0.089000	0.529493	1339.904053
7673.140929	0.088975	0.529493	1419.981201
7673.141832	0.088894	0.529493	1500.252563
7673.142724	0.088971	0.529493	1579.614624
7673.143681	0.089048	0.529493	1664.833374
7673.144588	0.088949	0.529493	1745.510132
7674.167788	0.880192	0.494664	404.888153
7674.168689	0.578654	0.494664	926.255005
7674.169576	0.096178	0.494664	1011.564880
7674.170519	0.088898	0.494664	1095.395386
7674.171434	0.088883	0.494664	1176.723389
7674.172347	0.088942	0.494664	1257.927124
7674.173251	0.088971	0.494664	1338.356812
7674.174204	0.089026	0.494664	1423.198486
7674.175116	0.088934	0.494664	1504.306641
7674.176034	0.089059	0.494664	1586.062622
7674.176923	0.088942	0.494664	1665.131714
7674.177875	0.088934	0.494664	1749.797241
7675.145199	0.891097	0.536989	423.271271
7675.146149	0.512706	0.536989	910.342285
7675.147070	0.093354	0.536989	996.321777
7675.147958	0.088795	0.536989	1075.171875
7675.148902	0.088960	0.536989	1159.150024
7675.149835	0.088916	0.536989	1242.108643
7675.150725	0.089015	0.536989	1321.331909
7675.151643	0.088920	0.536989	1402.960205
7675.152581	0.088971	0.536989	1486.414917
7675.153494	0.088964	0.536989	1567.638672
7675.154390	0.089008	0.536989	1647.389404
7675.155333	0.088982	0.536989	1731.299316
7676.190690	0.873926	0.494849	393.266602
7676.191596	0.581785	0.494849	920.363525
7676.192486	0.096541	0.494849	1006.284607
7676.193436	0.088934	0.494849	1090.772217
7676.194337	0.088916	0.494849	1170.885498
7676.195242	0.089011	0.494849	1251.440674
7676.196135	0.088942	0.494849	1330.865601
7676.197086	0.089041	0.494849	1415.543091
7676.197995	0.088905	0.494849	1496.357788
7676.198883	0.088989	0.494849	1575.380249
7676.199808	0.089004	0.494849	1657.708862
7676.200712	0.088978	0.494849	1738.145264
7677.155802	0.859622	0.530012	382.531616
7677.156697	0.604570	0.530012	923.622009
7677.157670	0.094570	0.530012	1015.638916
7677.158570	0.088876	0.530012	1095.627075
7677.159484	0.088993	0.530012	1176.966553
7677.160381	0.088909	0.530012	1256.717651
7677.161333	0.089004	0.530012	1341.449341
7677.162255	0.088975	0.530012	1423.483887
7677.163154	0.088916	0.530012	1503.419434
7677.164087	0.088971	0.530012	1586.429321
7677.165007	0.088909	0.530012	1668.225342
7677.165916	0.088975	0.530012	1749.103271
7678.212602	0.882605	0.486470	428.946045
7678.213525	0.525970	0.486470	914.416748
7678.214418	0.094574	0.486470	998.871338
7678.215306	0.088912	0.486470	1077.825562
7678.216253	0.088997	0.486470	1162.105347
7678.217153	0.088931	0.486470	1242.142944
7678.218053	0.088967	0.486470	1322.213501
7678.218942	0.088989	0.486470	1401.324951
7678.219887	0.089048	0.486470	1485.475220
7678.220796	0.088934	0.486470	1566.316528
7678.221698	0.088916	0.486470	1646.518799
7678.222632	0.089059	0.486470	1729.699707
7679.168468	0.852052	0.521863	374.902863
7679.169365	0.609987	0.521863	922.060791
7679.170320	0.095010	0.521863	1012.795105
7679.171216	0.088843	0.521863	1092.398193
7679.172129	0.088993	0.521863	1173.648682
7679.173027	0.088956	0.521863	1253.531494
7679.173986	0.088967	0.521863	1338.851074
7679.174886	0.088938	0.521863	1418.895264
7679.175777	0.088934	0.521863	1498.135742
7679.176710	0.089019	0.521863	1581.190063
7679.177613	0.088923	0.521863	1661.487793
7679.178532	0.089033	0.521863	1743.309326
7680.232943	0.874687	0.496642	414.601868
7680.233839	0.566382	0.496642	922.079956
7680.234765	0.095314	0.496642	1010.340454
7680.235707	0.088777	0.496642	1093.968262
7680.236626	0.088821	0.496642	1175.594604
7680.237519	0.088876	0.496642	1254.960693
7680.238464	0.088854	0.496642	1338.927490
7680.239405	0.088920	0.496642	1422.600952
7680.240320	0.088865	0.496642	1503.912231
7680.241209	0.088912	0.496642	1582.955322
7680.242156	0.088887	0.496642	1667.131104
7680.243087	0.088898	0.496642	1749.894897
7681.182718	0.890131	0.531672	437.054138
7681.183644	0.510223	0.531672	909.520996
7681.184549	0.093684	0.531672	994.305115
7681.185437	0.088810	0.531672	1073.168213
7681.186395	0.088975	0.531672	1158.405884
7681.187299	0.088964	0.531672	1238.828979
7681.188196	0.088813	0.531672	1318.494629
7681.189083	0.088894	0.531672	1397.343628
7681.190034	0.088945	0.531672	1481.930664
7681.190930	0.088861	0.531672	1561.550171
7681.191823	0.088916	0.531672	1640.952148
7681.192754	0.088887	0.531672	1723.705688
7682.250702	0.867938	0.479255	387.100433
7682.251688	0.501797	0.479255	881.872192
7682.252621	0.092666	0.479255	968.329590
7682.253518	0.088766	0.479255	1047.952637
7682.254436	0.088817	0.479255	1129.486816
7682.255370	0.088821	0.479255	1212.445435
7682.256286	0.088865	0.479255	1293.845581
7682.257178	0.088759	0.479255	1373.018188
7682.258121	0.088813	0.479255	1456.769287
7682.259058	0.088850	0.479255	1540.021851
7682.259955	0.088810	0.479255	1619.684204
7682.260872	0.088824	0.479255	1701.136230
7683.197894	0.851169	0.536256	371.961060
7683.198872	0.538759	0.536256	898.866882
7683.199777	0.093882	0.536256	983.829956
7683.200674	0.088755	0.536256	1063.443115
7683.201563	0.088835	0.536256	1142.417847
7683.202499	0.088927	0.536256	1225.653564
7683.203409	0.088813	0.536256	1306.473877
7683.204306	0.088795	0.536256	1386.123169
7683.205220	0.088795	0.536256	1467.281982
7683.206131	0.088854	0.536256	1548.227783
7683.207040	0.088806	0.536256	1628.952637
7683.207931	0.088883	0.536256	1708.147461
7684.267488	0.867052	0.481137	390.173401
7684.268388	0.590720	0.481137	921.821594
7684.269279	0.096661	0.481137	1007.946899
7684.270218	0.088733	0.481137	1091.267090
7684.271129	0.088901	0.481137	1172.256226
7684.272044	0.088898	0.481137	1253.597656
7684.272929	0.088846	0.481137	1332.226807
7684.273881	0.088879	0.481137	1416.839966
7684.274795	0.088850	0.481137	1498.048950
7684.275685	0.088846	0.481137	1577.122314
7684.276632	0.088824	0.481137	1661.239014
7684.277551	0.088762	0.481137	1742.811523
7685.213641	0.853030	0.537360	371.920990
7685.214596	0.542549	0.537360	890.055176
7685.215538	0.093772	0.537360	978.388367
7685.216455	0.088857	0.537360	1059.870605
7685.217343	0.088824	0.537360	1138.746704
7685.218275	0.088839	0.537360	1221.544800
7685.219206	0.088857	0.537360	1304.270996
7685.220102	0.088912	0.537360	1383.936523
7685.221017	0.088846	0.537360	1465.230957
7685.221955	0.088824	0.537360	1548.548340
7685.222884	0.088879	0.537360	1631.117310
7685.223773	0.088872	0.537360	1710.124634
7686.284244	0.861749	0.482075	387.787170
7686.285144	0.596133	0.482075	924.306702
7686.286101	0.095889	0.482075	1016.072144
7686.287005	0.088788	0.482075	1096.336304
7686.287926	0.088894	0.482075	1178.207764
7686.288823	0.088821	0.482075	1257.880005
7686.289769	0.088945	0.482075	1342.022217
7686.290673	0.088843	0.482075	1422.336060
7686.291566	0.088876	0.482075	1501.702148
7686.292481	0.088879	0.482075	1583.026855
7686.293402	0.088835	0.482075	1664.844238
7686.294298	0.088744	0.482075	1744.358765
7687.230453	0.894738	0.540804	431.263489
7687.231413	0.494194	0.540804	905.690063
7687.232330	0.092765	0.540804	990.755493
7687.233215	0.088799	0.540804	1069.342407
7687.234155	0.088824	0.540804	1152.837402
7687.235085	0.088832	0.540804	1235.450928
7687.235992	0.088817	0.540804	1316.008057
7687.236912	0.088810	0.540804	1397.713135
7687.237848	0.088781	0.540804	1480.811646
7687.238763	0.088817	0.540804	1562.079346
7687.239660	0.088850	0.540804	1641.777832
7687.240606	0.088861	0.540804	1725.840454
7688.299998	0.874973	0.487969	397.237823
7688.300904	0.580869	0.487969	923.505249
7688.301823	0.096156	0.487969	1011.872620
7688.302770	0.088923	0.487969	1096.083008
7688.303678	0.088975	0.487969	1176.871948
7688.304569	0.088986	0.487969	1256.158081
7688.305492	0.088934	0.487969	1338.244507
7688.306414	0.088945	0.487969	1420.252075
7688.307311	0.089000	0.487969	1500.085327
7688.308198	0.089011	0.487969	1579.038330
7688.309136	0.089022	0.487969	1662.541138
7688.310039	0.088927	0.487969	1742.842163
7689.247226	0.879789	0.530681	418.779480
7689.248151	0.536638	0.530681	915.169800
7689.249042	0.094592	0.530681	999.451538
7689.249976	0.088839	0.530681	1082.427246
7689.250920	0.088865	0.530681	1166.315552
7689.251827	0.088890	0.530681	1246.939087
7689.252724	0.088953	0.530681	1326.729614
7689.253665	0.088901	0.530681	1410.385742
7689.254595	0.088945	0.530681	1493.104858
7689.255496	0.088923	0.530681	1573.224731
7689.256401	0.088920	0.530681	1653.697021
7689.257335	0.088857	0.530681	1736.689819
7690.316251	0.869473	0.491276	393.871124
7690.317152	0.588157	0.491276	923.800415
7690.318037	0.096936	0.491276	1009.588806
7690.318994	0.088920	0.491276	1094.684937
7690.319891	0.088971	0.491276	1174.491821
7690.320780	0.088949	0.491276	1253.567505
7690.321715	0.089022	0.491276	1336.803223
7690.322618	0.089037	0.491276	1417.203491
7690.323527	0.088894	0.491276	1498.008179
7690.324418	0.088920	0.491276	1577.235596
7690.325354	0.088997	0.491276	1660.536377
7690.326270	0.088967	0.491276	1742.030396
7691.264487	0.867173	0.537593	405.836884
7691.265404	0.551946	0.537593	911.971191
7691.266294	0.095420	0.537593	996.894897
7691.267256	0.088905	0.537593	1082.421509
7691.268191	0.088938	0.537593	1165.578491
7691.269095	0.088949	0.537593	1245.988403
7691.270002	0.088964	0.537593	1326.678467
7691.270937	0.088931	0.537593	1409.828613
7691.271873	0.088942	0.537593	1493.078003
7691.272763	0.088989	0.537593	1572.278442
7691.273685	0.088931	0.537593	1654.272461
7691.274620	0.088846	0.537593	1737.343872
7692.332026	0.883103	0.482293	429.188049
7692.332957	0.516658	0.482293	910.196411
7692.333881	0.093300	0.482293	996.405212
7692.334777	0.089037	0.482293	1076.182251
7692.335725	0.089121	0.482293	1160.669067
7692.336630	0.089055	0.482293	1241.264038
7692.337550	0.089139	0.482293	1323.272339
7692.338435	0.089059	0.482293	1402.089355
7692.339376	0.089030	0.482293	1485.866211
7692.340282	0.089081	0.482293	1566.573486
7692.341173	0.089139	0.482293	1645.996704
7692.342107	0.089062	0.482293	1729.181030
7693.282775	0.865587	0.544252	383.455109
7693.283709	0.562368	0.544252	908.706909
7693.284633	0.094497	0.544252	996.022217
7693.285566	0.088894	0.544252	1078.960327
7693.286452	0.089015	0.544252	1157.827515
7693.287394	0.088971	0.544252	1241.638184
7693.288329	0.088945	0.544252	1324.802002
7693.289230	0.088978	0.544252	1404.971436
7693.290145	0.088905	0.544252	1486.319580
7693.291090	0.088916	0.544252	1570.345215
7693.292008	0.088971	0.544252	1652.020508
7693.292901	0.088964	0.544252	1731.464966
7694.346708	0.858746	0.490446	382.142120
7694.347607	0.597279	0.490446	919.095947
7694.348541	0.096431	0.490446	1009.162170
7694.349455	0.088920	0.490446	1090.434814
7694.350378	0.088967	0.490446	1172.551636
7694.351263	0.088989	0.490446	1251.307129
7694.352204	0.088993	0.490446	1335.049438
7694.353105	0.088927	0.490446	1415.172607
7694.354022	0.088967	0.490446	1496.755615
7694.354918	0.089008	0.490446	1576.506348
7694.355872	0.088912	0.490446	1661.328735
7694.356775	0.088953	0.490446	1741.652954
7695.302135	0.880778	0.536973	428.057892
7695.303064	0.517214	0.536973	908.550049
7695.303987	0.093369	0.536973	994.729736
7695.304888	0.088821	0.536973	1074.757324
7695.305842	0.088916	0.536973	1159.583252
7695.306748	0.088934	0.536973	1240.157715
7695.307670	0.088942	0.536973	1322.161865
7695.308558	0.088905	0.536973	1401.109497
7695.309513	0.088960	0.536973	1486.066284
7695.310432	0.089015	0.536973	1567.870972
7695.311323	0.088931	0.536973	1647.108154
7695.312250	0.088934	0.536973	1729.550293
7696.358366	0.873420	0.493576	391.292358
7696.359270	0.588003	0.493576	922.846985
7696.360157	0.096738	0.493576	1008.653809
7696.361111	0.088942	0.493576	1093.504150
7696.362013	0.088975	0.493576	1173.759277
7696.362908	0.088898	0.493576	1253.322754
7696.363801	0.088997	0.493576	1332.796753
7696.364752	0.088964	0.493576	1417.401123
7696.365660	0.089008	0.493576	1498.219971
7696.366563	0.088993	0.493576	1578.580566
7696.367488	0.089000	0.493576	1660.905762
7696.368383	0.089033	0.493576	1740.590454
7697.323470	0.856597	0.534818	377.759125
7697.324362	0.607496	0.534818	919.645874
7697.325316	0.095240	0.534818	1010.505310
7697.326211	0.088846	0.534818	1090.022827
7697.327137	0.088978	0.534818	1172.416748
7697.328021	0.088986	0.534818	1251.080078
7697.328984	0.089015	0.534818	1336.801392
7697.329889	0.088916	0.534818	1417.270386
7697.330779	0.088964	0.534818	1496.447998
7697.331715	0.088953	0.534818	1579.707642
7697.332623	0.088883	0.534818	1660.413452
7697.333544	0.089000	0.534818	1742.382690
7698.370034	0.867283	0.495824	406.755585
7698.370954	0.554062	0.495824	916.493042
7698.371876	0.094303	0.495824	1003.440369
7698.372763	0.088898	0.495824	1082.292603
7698.373717	0.088949	0.495824	1167.149902
7698.374635	0.089041	0.495824	1248.889160
7698.375546	0.089011	0.495824	1329.978394
7698.376436	0.088916	0.495824	1409.113647
7698.377388	0.088938	0.495824	1493.782593
7698.378329	0.088898	0.495824	1577.435303
7698.379224	0.089041	0.495824	1657.126587
7698.380140	0.088894	0.495824	1738.553467
7699.345879	0.859460	0.526854	385.038300
7699.346781	0.594042	0.526854	920.863892
7699.347672	0.096885	0.526854	1007.188232
7699.348640	0.088872	0.526854	1093.216431
7699.349549	0.088971	0.526854	1174.091064
7699.350438	0.089048	0.526854	1253.254639
7699.351369	0.089011	0.526854	1336.124146
7699.352285	0.088938	0.526854	1417.591309
7699.353206	0.088949	0.526854	1499.513306
7699.354098	0.089000	0.526854	1578.901489
7699.355049	0.089019	0.526854	1663.558105
7699.355949	0.089000	0.526854	1743.658325
7700.380643	0.885000	0.503844	404.445007
7700.381578	0.551386	0.503844	919.990479
7700.382471	0.095116	0.503844	1004.929016
7700.383410	0.088960	0.503844	1088.462402
7700.384345	0.088986	0.503844	1171.663940
7700.385243	0.088982	0.503844	1251.569702
7700.386162	0.088993	0.503844	1333.354248
7700.387095	0.088978	0.503844	1416.370972
7700.388033	0.088945	0.503844	1499.801636
7700.388931	0.089004	0.503844	1579.727173
7700.389854	0.089008	0.503844	1661.881104
7700.390795	0.089000	0.503844	1745.630371
7701.368280	0.869469	0.524578	392.130524
7701.369186	0.584319	0.524578	921.523437
7701.370073	0.096562	0.524578	1007.174377
7701.371043	0.088960	0.524578	1093.465576
7701.371947	0.089059	0.524578	1173.974731
7701.372847	0.089099	0.524578	1254.163940
7701.373735	0.089059	0.524578	1333.248169
7701.374664	0.089041	0.524578	1415.966797
7701.375567	0.089000	0.524578	1496.333984
7701.376458	0.089062	0.524578	1575.688721
7701.377390	0.089044	0.524578	1658.677856
7701.378302	0.088986	0.524578	1739.832764
7702.392815	0.868645	0.502471	403.919922
7702.393731	0.559178	0.502471	916.127380
7702.394623	0.095317	0.502471	1001.150513
7702.395540	0.088909	0.502471	1082.679810
7702.396484	0.088978	0.502471	1166.675293
7702.397408	0.088975	0.502471	1248.887817
7702.398297	0.089008	0.502471	1328.015503
7702.399224	0.088916	0.502471	1410.440674
7702.400153	0.089030	0.502471	1493.149170
7702.401063	0.089022	0.502471	1574.159424
7702.401958	0.089030	0.502471	1653.840820
7702.402902	0.089026	0.502471	1737.881226
7703.387099	0.869700	0.516787	387.886078
7703.388017	0.573365	0.516787	914.235596
7703.388929	0.095328	0.516787	1001.175049
7703.389837	0.088945	0.516787	1081.937378
7703.390769	0.089022	0.516787	1164.906128
7703.391682	0.088986	0.516787	1246.150024
7703.392574	0.088989	0.516787	1325.528442
7703.393508	0.088956	0.516787	1408.613647
7703.394412	0.089030	0.516787	1489.096313
7703.395317	0.088971	0.516787	1569.614990
7703.396208	0.089037	0.516787	1648.946777
7703.397161	0.089070	0.516787	1733.830322
7704.408044	0.873113	0.516880	400.758789
7704.408950	0.577189	0.516880	923.691772
7704.409837	0.096031	0.516880	1008.871704
7704.410770	0.088949	0.516880	1091.861084
7704.411686	0.088967	0.516880	1173.355103
7704.412584	0.088997	0.516880	1253.274048
7704.413470	0.088960	0.516880	1332.092529
7704.414410	0.089022	0.516880	1415.773437
7704.415317	0.088982	0.516880	1496.480103
7704.416245	0.089092	0.516880	1579.157227
7704.417133	0.089059	0.516880	1658.241455
7704.418064	0.088964	0.516880	1741.066650
7705.403857	0.854341	0.524655	376.764282
7705.404751	0.600934	0.524655	913.999084
7705.405726	0.094493	0.524655	1006.130127
7705.406643	0.088901	0.524655	1087.652710
7705.407532	0.089026	0.524655	1166.796753
7705.408458	0.088953	0.524655	1249.166870
7705.409386	0.088942	0.524655	1331.704712
7705.410313	0.088960	0.524655	1414.170654
7705.411206	0.089022	0.524655	1493.667480
7705.412123	0.089000	0.524655	1575.280762
7705.413059	0.089059	0.524655	1658.639893
7705.413983	0.088978	0.524655	1740.855835
7706.426874	0.895280	0.515462	430.629456
7706.427782	0.547229	0.515462	927.513367
7706.428667	0.095259	0.515462	1011.817383
7706.429608	0.088894	0.515462	1095.466675
7706.430553	0.088997	0.515462	1179.568481
7706.431454	0.088971	0.515462	1259.731323
7706.432370	0.088971	0.515462	1341.228760
7706.433300	0.088989	0.515462	1423.988770
7706.434238	0.088982	0.515462	1507.453857
7706.435137	0.089041	0.515462	1587.501343
7706.436069	0.088971	0.515462	1670.422241
7706.436980	0.089088	0.515462	1751.581543
7707.417563	0.869242	0.528546	385.074188
7707.418488	0.555568	0.528546	898.974243
7707.419413	0.094420	0.528546	986.312866
7707.420304	0.088934	0.528546	1065.553345
7707.421245	0.088989	0.528546	1149.292236
7707.422140	0.088997	0.528546	1228.944214
7707.423028	0.089015	0.528546	1307.989380
7707.423961	0.089044	0.528546	1391.067627
7707.424862	0.089011	0.528546	1471.266724
7707.425777	0.088964	0.528546	1552.668457
7707.426676	0.088964	0.528546	1632.646729
7707.427617	0.089011	0.528546	1716.406250
7708.448763	0.904193	0.502543	430.395905
7708.449675	0.547771	0.502543	929.963013
7708.450559	0.095442	0.502543	1014.333618
7708.451497	0.088909	0.502543	1097.729980
7708.452434	0.088953	0.502543	1181.078613
7708.453351	0.088960	0.502543	1262.654907
7708.454250	0.088956	0.502543	1342.626587
7708.455199	0.088879	0.502543	1426.973145
7708.456128	0.088982	0.502543	1509.637329
7708.457043	0.089059	0.502543	1591.126221
7708.457934	0.088960	0.502543	1670.389526
7708.458876	0.088912	0.502543	1754.145020
7709.427160	0.867176	0.533118	385.026367
7709.428070	0.589102	0.533118	921.108826
7709.428960	0.096929	0.533118	1007.375366
7709.429919	0.088982	0.533118	1092.708984
7709.430816	0.089117	0.533118	1172.647339
7709.431709	0.089117	0.533118	1252.229248
7709.432628	0.089099	0.533118	1334.111328
7709.433546	0.089172	0.533118	1415.971558
7709.434455	0.089084	0.533118	1496.949341
7709.435353	0.089055	0.533118	1576.920898
7709.436280	0.089176	0.533118	1659.587036
7709.437184	0.089198	0.533118	1740.222046
7710.472133	0.851569	0.493487	372.135468
7710.473028	0.607342	0.493487	915.707031
7710.473993	0.094427	0.493487	1006.829590
7710.474898	0.088898	0.493487	1087.281982
7710.475793	0.088975	0.493487	1166.914307
7710.476709	0.089000	0.493487	1248.438477
7710.477628	0.088942	0.493487	1330.175903
7710.478522	0.088964	0.493487	1409.709351
7710.479439	0.088978	0.493487	1491.302490
7710.480326	0.088905	0.493487	1570.161255
7710.481274	0.089019	0.493487	1654.550781
7710.482194	0.088887	0.493487	1736.326538
7711.437275	0.867656	0.531055	390.445312
7711.438182	0.588241	0.531055	923.979858
7711.439068	0.096790	0.531055	1009.735413
7711.440030	0.089026	0.531055	1095.378296
7711.440947	0.088956	0.531055	1176.951172
7711.441853	0.089011	0.531055	1257.595337
7711.442742	0.089106	0.531055	1336.810913
7711.443690	0.089044	0.531055	1421.224854
7711.444594	0.088931	0.531055	1501.618164
7711.445481	0.089041	0.531055	1580.597168
7711.446419	0.089026	0.531055	1664.103394
7711.447332	0.089026	0.531055	1745.384033
