time (s)	coil I (A)	last det (V)	int current (uC)
4168.144600	0.867239	0.649629	385.054016
4168.145501	0.605145	0.649629	930.289917
4168.146391	0.097141	0.649629	1016.745483
4168.147357	0.088883	0.649629	1102.606567
4168.148269	0.088879	0.649629	1183.664551
4168.149168	0.088909	0.649629	1263.593506
4168.150081	0.088901	0.649629	1344.760498
4168.151006	0.088997	0.649629	1427.082275
4168.151912	0.088890	0.649629	1507.616943
4168.152803	0.088978	0.649629	1586.896606
4168.153732	0.089004	0.649629	1669.581299
4168.154636	0.089052	0.649629	1750.083862
4169.212640	0.867850	0.554670	388.796967
4169.213542	0.591947	0.554670	922.733154
4169.214428	0.096617	0.554670	1008.336182
4169.215349	0.088766	0.554670	1090.089600
4169.216286	0.088857	0.554670	1173.348999
4169.217205	0.088901	0.554670	1255.049316
4169.218104	0.088949	0.554670	1335.014404
4169.219054	0.088879	0.554670	1419.449829
4169.219994	0.088894	0.554670	1503.010254
4169.220895	0.088868	0.554670	1583.080688
4169.221813	0.088876	0.554670	1664.668579
4169.222754	0.088920	0.554670	1748.342041
4170.165706	0.854191	0.680542	371.572937
4170.166659	0.582532	0.680542	926.725708
4170.167570	0.094691	0.680542	1012.989380
4170.168471	0.088876	0.680542	1093.066406
4170.169376	0.088989	0.680542	1173.601685
4170.170312	0.088964	0.680542	1256.871582
4170.171222	0.088997	0.680542	1337.858521
4170.172122	0.089008	0.680542	1417.965332
4170.173010	0.088997	0.680542	1496.994263
4170.173963	0.089044	0.680542	1581.853394
4170.174870	0.088938	0.680542	1662.520142
4170.175764	0.089000	0.680542	1742.086426
4171.223000	0.871077	0.548293	388.500183
4171.223896	0.583143	0.548293	910.996582
4171.224864	0.093995	0.548293	1001.984070
4171.225765	0.088953	0.548293	1082.130371
4171.226654	0.089022	0.548293	1161.271118
4171.227588	0.089037	0.548293	1244.431519
4171.228505	0.088964	0.548293	1326.011108
4171.229427	0.089004	0.548293	1408.072754
4171.230317	0.088971	0.548293	1487.256836
4171.231256	0.089055	0.548293	1570.879639
4171.232154	0.088912	0.548293	1650.722900
4171.233045	0.089022	0.548293	1730.041748
4172.190668	0.857043	0.633162	377.956146
4172.191562	0.610016	0.633162	923.310303
4172.192533	0.095076	0.633162	1015.628784
4172.193460	0.088755	0.633162	1097.904541
4172.194358	0.089000	0.633162	1177.826782
4172.195276	0.088865	0.633162	1259.404663
4172.196212	0.088802	0.633162	1342.523804
4172.197149	0.088967	0.633162	1425.886108
4172.198047	0.088887	0.633162	1505.706421
4172.198969	0.088876	0.633162	1587.649902
4172.199907	0.088898	0.633162	1671.035889
4172.200823	0.088916	0.633162	1752.482910
4173.233404	0.875138	0.559137	427.942444
4173.234329	0.517050	0.559137	906.213257
4173.235228	0.094025	0.559137	990.741455
4173.236115	0.088898	0.559137	1069.593750
4173.237044	0.088938	0.559137	1152.217163
4173.237950	0.088938	0.559137	1232.794922
4173.238850	0.088938	0.559137	1312.839111
4173.239737	0.088916	0.559137	1391.707642
4173.240686	0.088953	0.559137	1476.123657
4173.241591	0.088949	0.559137	1556.622437
4173.242486	0.089000	0.559137	1636.277710
4173.243412	0.088934	0.559137	1718.630859
4174.214635	0.867601	0.612274	408.640228
4174.215581	0.521587	0.612274	902.061401
4174.216500	0.093527	0.612274	988.012329
4174.217386	0.088942	0.612274	1066.814575
4174.218338	0.088916	0.612274	1151.462646
4174.219268	0.089015	0.612274	1234.246460
4174.220166	0.089004	0.612274	1314.171997
4174.221078	0.088960	0.612274	1395.303467
4174.222012	0.088960	0.612274	1478.392090
4174.222943	0.088931	0.612274	1561.186523
4174.223842	0.089022	0.612274	1641.217529
4174.224761	0.088982	0.612274	1722.991943
4175.245767	0.856150	0.584495	373.281372
4175.246724	0.540509	0.584495	890.548462
4175.247643	0.094259	0.584495	977.172485
4175.248539	0.088846	0.584495	1056.778931
4175.249471	0.088938	0.584495	1139.669189
4175.250381	0.088982	0.584495	1220.642700
4175.251285	0.088883	0.584495	1300.992920
4175.252184	0.088927	0.584495	1380.938232
4175.253117	0.088971	0.584495	1463.948120
4175.254018	0.088942	0.584495	1544.084595
4175.254915	0.088901	0.584495	1623.829102
4175.255799	0.088923	0.584495	1702.437378
4176.239068	0.863097	0.582179	384.941254
4176.239961	0.592573	0.582179	914.109131
4176.240910	0.094640	0.582179	1003.922363
4176.241822	0.088802	0.582179	1084.910278
4176.242711	0.088938	0.582179	1163.976196
4176.243643	0.089008	0.582179	1246.931274
4176.244547	0.088883	0.582179	1327.281494
4176.245470	0.088931	0.582179	1409.364502
4176.246362	0.088953	0.582179	1488.710205
4176.247309	0.088934	0.582179	1572.931030
4176.248209	0.088931	0.582179	1652.968628
4176.249136	0.088909	0.582179	1735.386963
4177.259219	0.859702	0.623743	380.848022
4177.260123	0.601736	0.623743	924.817200
4177.261010	0.097196	0.623743	1011.030090
4177.261962	0.088905	0.623743	1095.667725
4177.262904	0.088960	0.623743	1179.468018
4177.263801	0.089048	0.623743	1259.343994
4177.264732	0.088982	0.623743	1342.186157
4177.265666	0.089011	0.623743	1425.322632
4177.266587	0.088971	0.623743	1507.264893
4177.267471	0.088945	0.623743	1585.892578
4177.268407	0.088956	0.623743	1669.155640
4177.269340	0.088982	0.623743	1752.175781
4178.254041	0.868198	0.576016	390.689209
4178.254939	0.597689	0.576016	927.414124
4178.255897	0.096460	0.576016	1019.822754
4178.256794	0.088982	0.576016	1099.639526
4178.257694	0.088971	0.576016	1179.713379
4178.258581	0.088949	0.576016	1258.611084
4178.259520	0.089070	0.576016	1342.247681
4178.260420	0.088931	0.576016	1422.285278
4178.261324	0.089033	0.576016	1502.771240
4178.262210	0.088971	0.576016	1581.599487
4178.263157	0.089026	0.576016	1665.906982
4178.264066	0.088876	0.576016	1746.695068
4179.277808	0.898176	0.645774	426.633728
4179.278746	0.512845	0.645774	907.682739
4179.279675	0.093245	0.645774	994.307007
4179.280563	0.088868	0.645774	1073.222168
4179.281509	0.088909	0.645774	1157.329834
4179.282444	0.088923	0.645774	1240.473145
4179.283336	0.088997	0.645774	1319.858154
4179.284257	0.088953	0.645774	1401.783569
4179.285189	0.088927	0.645774	1484.663574
4179.286102	0.088971	0.645774	1565.894043
4179.286997	0.089033	0.645774	1645.578735
4179.287943	0.088960	0.645774	1729.734863
4180.265417	0.868429	0.580407	381.240295
4180.266384	0.530127	0.580407	893.873108
4180.267302	0.093750	0.580407	979.935608
4180.268204	0.088744	0.580407	1059.982666
4180.269136	0.088942	0.580407	1142.876221
4180.270038	0.089026	0.580407	1223.177612
4180.270941	0.088865	0.580407	1303.422485
4180.271829	0.088949	0.580407	1382.409180
4180.272767	0.088868	0.580407	1465.767700
4180.273676	0.088861	0.580407	1546.542480
4180.274585	0.088806	0.580407	1627.267334
4180.275477	0.088788	0.580407	1706.466064
4181.300706	0.876259	0.656482	393.440094
4181.301615	0.587849	0.656482	927.794922
4181.302506	0.096178	0.656482	1013.489502
4181.303431	0.088909	0.656482	1095.729980
4181.304352	0.088916	0.656482	1177.621582
4181.305275	0.088986	0.656482	1259.755249
4181.306164	0.088986	0.656482	1338.863403
4181.307113	0.088905	0.656482	1423.234253
4181.308009	0.088923	0.656482	1502.909546
4181.308923	0.088960	0.656482	1584.218994
4181.309814	0.088997	0.656482	1663.514893
4181.310758	0.088960	0.656482	1747.493042
4182.275556	0.873450	0.605362	393.052399
4182.276478	0.579089	0.605362	926.972778
4182.277374	0.096053	0.605362	1013.036682
4182.278268	0.088861	0.605362	1092.478516
4182.279203	0.088975	0.605362	1175.669800
4182.280114	0.088989	0.605362	1256.739014
4182.281026	0.088923	0.605362	1337.837158
4182.281921	0.088960	0.605362	1417.456299
4182.282869	0.089062	0.605362	1501.887573
4182.283776	0.088993	0.605362	1582.604126
4182.284676	0.088997	0.605362	1662.701050
4182.285607	0.088949	0.605362	1745.512573
4183.324134	0.872538	0.632859	394.387085
4183.325039	0.585890	0.632859	924.617432
4183.325925	0.096486	0.632859	1010.103638
4183.326887	0.088876	0.632859	1095.602051
4183.327789	0.088967	0.632859	1175.850586
4183.328704	0.089011	0.632859	1257.295898
4183.329600	0.088975	0.632859	1337.017090
4183.330533	0.088920	0.632859	1419.979126
4183.331457	0.088975	0.632859	1502.191650
4183.332353	0.088949	0.632859	1581.889893
4183.333277	0.089015	0.632859	1664.139648
4183.334202	0.089033	0.632859	1746.495361
4184.285186	0.913074	0.621036	442.840759
4184.286118	0.514742	0.621036	922.580688
4184.287009	0.094065	0.621036	1006.392578
4184.287933	0.088850	0.621036	1088.490112
4184.288870	0.088879	0.621036	1171.770142
4184.289789	0.088894	0.621036	1253.463745
4184.290688	0.088883	0.621036	1333.369629
4184.291639	0.088967	0.621036	1417.977539
4184.292576	0.088923	0.621036	1501.298706
4184.293474	0.088960	0.621036	1581.184814
4184.294392	0.088942	0.621036	1662.833252
4184.295329	0.088901	0.621036	1746.133789
4185.346790	0.880159	0.608875	404.873016
4185.347689	0.580602	0.608875	926.833984
4185.348577	0.096204	0.608875	1012.262817
4185.349519	0.089037	0.608875	1096.135498
4185.350428	0.088953	0.608875	1176.993408
4185.351349	0.089004	0.608875	1258.966064
4185.352240	0.088916	0.608875	1338.190186
4185.353187	0.088960	0.608875	1422.435303
4185.354094	0.088978	0.608875	1503.138550
4185.354989	0.089041	0.608875	1582.829834
4185.355898	0.088920	0.608875	1663.657837
4185.356821	0.088868	0.608875	1745.683350
4186.296523	0.853843	0.642797	373.129303
4186.297466	0.552385	0.642797	894.028564
4186.298425	0.093574	0.642797	983.766235
4186.299339	0.088949	0.642797	1065.065552
4186.300236	0.089026	0.642797	1144.921753
4186.301194	0.088942	0.642797	1230.127808
4186.302125	0.088931	0.642797	1312.922241
4186.303022	0.088953	0.642797	1392.712769
4186.303942	0.088894	0.642797	1474.495239
4186.304873	0.088982	0.642797	1557.337402
4186.305794	0.089008	0.642797	1639.313354
4186.306683	0.088982	0.642797	1718.418335
4187.367119	0.857567	0.600129	377.329529
4187.368016	0.594423	0.600129	910.526611
4187.368975	0.094424	0.600129	1001.079041
4187.369881	0.088810	0.600129	1081.540771
4187.370781	0.088986	0.600129	1161.627808
4187.371716	0.089030	0.600129	1244.870483
4187.372614	0.088967	0.600129	1324.763062
4187.373515	0.088978	0.600129	1404.932495
4187.374406	0.089000	0.600129	1484.231689
4187.375342	0.089033	0.600129	1567.566772
4187.376240	0.089000	0.600129	1647.489014
4187.377146	0.088945	0.600129	1728.073486
4188.311759	0.856842	0.658342	377.867340
4188.312752	0.497725	0.658342	872.107910
4188.313658	0.093607	0.658342	956.916016
4188.314578	0.089015	0.658342	1038.809692
4188.315465	0.089048	0.658342	1117.795166
4188.316409	0.089139	0.658342	1201.942749
4188.317304	0.089033	0.658342	1281.627441
4188.318196	0.089117	0.658342	1361.120239
4188.319127	0.089077	0.658342	1444.051025
4188.320030	0.089106	0.658342	1524.514160
4188.320947	0.089037	0.658342	1606.161011
4188.321845	0.089117	0.658342	1686.188477
4189.384438	0.870472	0.587238	410.862976
4189.385371	0.540656	0.587238	915.294617
4189.386264	0.094724	0.587238	999.883240
4189.387186	0.088986	0.587238	1081.927979
4189.388101	0.089062	0.587238	1163.420166
4189.389040	0.089062	0.587238	1247.049805
4189.389943	0.089165	0.587238	1327.565796
4189.390865	0.089147	0.587238	1409.759033
4189.391808	0.089037	0.587238	1493.720825
4189.392724	0.089139	0.587238	1575.372559
4189.393622	0.089062	0.587238	1655.350708
4189.394566	0.088956	0.587238	1739.325439
4190.332378	0.872303	0.654608	391.664276
4190.333280	0.594287	0.654608	927.711182
4190.334167	0.096958	0.654608	1013.712952
4190.335117	0.088956	0.654608	1098.221436
4190.336009	0.088982	0.654608	1177.593262
4190.336911	0.088956	0.654608	1257.831787
4190.337807	0.089033	0.654608	1337.605591
4190.338748	0.089000	0.654608	1421.354858
4190.339659	0.089011	0.654608	1502.444092
4190.340559	0.088942	0.654608	1582.491577
4190.341483	0.088997	0.654608	1664.724365
4190.342382	0.089008	0.654608	1744.742187
4191.399400	0.867305	0.598091	403.296692
4191.400351	0.520529	0.598091	898.319336
4191.401278	0.093080	0.598091	984.604370
4191.402174	0.088879	0.598091	1064.240356
4191.403104	0.088865	0.598091	1146.884521
4191.404048	0.088923	0.598091	1230.828125
4191.404961	0.088857	0.598091	1311.954956
4191.405853	0.088843	0.598091	1391.202759
4191.406783	0.088806	0.598091	1473.792480
4191.407721	0.088817	0.598091	1557.102905
4191.408632	0.088912	0.598091	1638.102051
4191.409524	0.088879	0.598091	1717.382446
4192.349895	0.852407	0.639441	371.649536
4192.350871	0.548899	0.639441	907.374817
4192.351785	0.093560	0.639441	992.888245
4192.352682	0.088737	0.639441	1072.484985
4192.353606	0.088817	0.639441	1154.552002
4192.354537	0.088846	0.639441	1237.268066
4192.355453	0.088876	0.639441	1318.678223
4192.356350	0.088872	0.639441	1398.396484
4192.357280	0.088887	0.639441	1481.061157
4192.358222	0.088865	0.639441	1564.771729
4192.359145	0.088916	0.639441	1646.841187
4192.360033	0.088872	0.639441	1725.759521
4193.415649	0.874812	0.616311	395.415039
4193.416556	0.577024	0.616311	918.775757
4193.417478	0.094863	0.616311	1006.239685
4193.418389	0.088792	0.616311	1087.128784
4193.419346	0.088854	0.616311	1172.161865
4193.420248	0.088850	0.616311	1252.304687
4193.421141	0.088854	0.616311	1331.651123
4193.422074	0.088905	0.616311	1414.599487
4193.422988	0.088865	0.616311	1495.821899
4193.423907	0.088810	0.616311	1577.438110
4193.424795	0.088865	0.616311	1656.349976
4193.425752	0.088883	0.616311	1741.411011
4194.365932	0.872695	0.649887	412.784851
4194.366876	0.521591	0.649887	905.166321
4194.367797	0.093351	0.649887	991.142456
4194.368687	0.088766	0.649887	1070.144043
4194.369636	0.088806	0.649887	1154.421143
4194.370560	0.088839	0.649887	1236.508545
4194.371456	0.088850	0.649887	1316.118286
4194.372360	0.088810	0.649887	1396.402344
4194.373295	0.088806	0.649887	1479.436035
4194.374237	0.088835	0.649887	1563.119019
4194.375137	0.088854	0.649887	1643.087402
4194.376056	0.088872	0.649887	1724.760864
4195.434503	0.912444	0.605894	447.097473
4195.435429	0.516053	0.605894	924.962952
4195.436321	0.094010	0.605894	1008.819885
4195.437213	0.088773	0.605894	1088.005615
4195.438159	0.088938	0.605894	1172.140991
4195.439073	0.088824	0.605894	1253.326538
4195.439973	0.088861	0.605894	1333.301514
4195.440904	0.088832	0.605894	1416.003906
4195.441813	0.088909	0.605894	1496.821899
4195.442713	0.088799	0.605894	1576.740845
4195.443601	0.088868	0.605894	1655.656006
4195.444550	0.088912	0.605894	1740.033813
4196.380921	0.895972	0.660308	434.546265
4196.381848	0.515757	0.660308	912.652832
4196.382757	0.093666	0.660308	997.795044
4196.383648	0.088865	0.660308	1076.973511
4196.384592	0.088938	0.660308	1160.931030
4196.385502	0.088920	0.660308	1241.847900
4196.386392	0.088927	0.660308	1320.992920
4196.387314	0.088964	0.660308	1403.017334
4196.388226	0.088964	0.660308	1484.152100
4196.389133	0.088887	0.660308	1564.772339
4196.390032	0.088876	0.660308	1644.671631
4196.390966	0.088813	0.660308	1727.623413
4197.451775	0.910821	0.593869	448.124176
4197.452695	0.514684	0.593869	921.633301
4197.453620	0.093021	0.593869	1007.677979
4197.454508	0.088843	0.593869	1086.570312
4197.455469	0.088839	0.593869	1171.944702
4197.456362	0.088883	0.593869	1251.317261
4197.457253	0.088839	0.593869	1330.472900
4197.458203	0.088912	0.593869	1414.939697
4197.459100	0.088861	0.593869	1494.648071
4197.460023	0.088872	0.593869	1576.677002
4197.460925	0.088868	0.593869	1656.836304
4197.461870	0.088843	0.593869	1740.792725
4198.397890	0.849906	0.662830	366.309479
4198.398862	0.540022	0.662830	891.210815
4198.399784	0.093571	0.662830	977.482849
4198.400708	0.088821	0.662830	1059.553223
4198.401598	0.088846	0.662830	1138.626587
4198.402555	0.088879	0.662830	1223.684204
4198.403478	0.088857	0.662830	1305.699585
4198.404395	0.088887	0.662830	1387.208740
4198.405283	0.088876	0.662830	1466.130371
4198.406222	0.088854	0.662830	1549.564087
4198.407154	0.088883	0.662830	1632.403076
4198.408058	0.088938	0.662830	1712.802979
4199.468002	0.872776	0.605986	395.367462
4199.468904	0.589135	0.605986	926.766846
4199.469793	0.096489	0.605986	1012.545776
4199.470743	0.088821	0.605986	1096.925537
4199.471654	0.088828	0.605986	1177.847900
4199.472555	0.088857	0.605986	1257.908447
4199.473447	0.088876	0.605986	1337.185547
4199.474395	0.088989	0.605986	1421.547363
4199.475296	0.088799	0.605986	1501.555054
4199.476194	0.088813	0.605986	1581.309570
4199.477135	0.088868	0.605986	1664.934692
4199.478039	0.088956	0.605986	1745.351196
4200.417775	0.871512	0.646479	416.582947
4200.418718	0.510044	0.646479	897.554321
4200.419621	0.093746	0.646479	982.207275
4200.420515	0.088916	0.646479	1061.698242
4200.421452	0.089132	0.646479	1145.214966
4200.422367	0.089011	0.646479	1226.660278
4200.423284	0.089052	0.646479	1308.320557
4200.424170	0.089004	0.646479	1387.177979
4200.425122	0.088986	0.646479	1471.892334
4200.426016	0.088982	0.646479	1551.442139
4200.426905	0.089030	0.646479	1630.589355
4200.427837	0.089044	0.646479	1713.578491
4201.482748	0.878320	0.629097	418.958771
4201.483685	0.523920	0.629097	909.871521
4201.484575	0.094028	0.629097	993.556702
4201.485494	0.088810	0.629097	1075.172974
4201.486427	0.088883	0.629097	1158.100830
4201.487344	0.088927	0.629097	1239.646851
4201.488238	0.088799	0.629097	1319.032959
4201.489187	0.088938	0.629097	1403.435059
4201.490119	0.088916	0.629097	1486.304810
4201.491036	0.088850	0.629097	1567.780396
4201.491926	0.088883	0.629097	1646.886353
4201.492875	0.088883	0.629097	1731.236328
4202.437126	0.911642	0.621685	446.704529
4202.438053	0.510864	0.621685	920.275696
4202.438955	0.093728	0.621685	1004.818359
4202.439842	0.088857	0.621685	1083.634888
4202.440782	0.088920	0.621685	1167.219360
4202.441683	0.088868	0.621685	1247.289795
4202.442582	0.088887	0.621685	1327.198975
4202.443513	0.088901	0.621685	1409.966187
4202.444413	0.088949	0.621685	1490.020264
4202.445318	0.088861	0.621685	1570.439575
4202.446212	0.088901	0.621685	1649.917358
4202.447159	0.088945	0.621685	1734.148560
4203.496149	0.858820	0.638737	382.174713
4203.497054	0.592621	0.638737	918.496582
4203.497943	0.096566	0.638737	1004.343872
4203.498917	0.088773	0.638737	1090.808960
4203.499854	0.088905	0.638737	1174.112915
4203.500752	0.088923	0.638737	1253.966064
4203.501671	0.088894	0.638737	1335.659668
4203.502608	0.088909	0.638737	1418.967163
4203.503522	0.088861	0.638737	1500.186157
4203.504411	0.088942	0.638737	1579.255249
4203.505327	0.088843	0.638737	1660.635254
4203.506260	0.088931	0.638737	1743.607544
4204.455919	0.874325	0.615155	412.681366
4204.456875	0.492374	0.615155	883.391113
4204.457809	0.092681	0.615155	969.954834
4204.458695	0.088795	0.615155	1048.627319
4204.459623	0.088802	0.615155	1131.036011
4204.460568	0.088868	0.615155	1215.016602
4204.461477	0.088920	0.615155	1295.844604
4204.462375	0.088890	0.615155	1375.668213
4204.463322	0.088920	0.615155	1459.875122
4204.464257	0.088927	0.615155	1543.021851
4204.465156	0.088894	0.615155	1622.937622
4204.466073	0.088894	0.615155	1704.453491
4205.508577	0.873926	0.655414	395.888397
4205.509484	0.580818	0.655414	922.690186
4205.510374	0.096259	0.655414	1008.360291
4205.511338	0.088817	0.655414	1093.979980
4205.512232	0.088854	0.655414	1173.415283
4205.513120	0.088883	0.655414	1252.343384
4205.514052	0.088945	0.655414	1335.240356
4205.514964	0.088832	0.655414	1416.255005
4205.515878	0.088883	0.655414	1497.494141
4205.516774	0.088901	0.655414	1577.149780
4205.517737	0.088792	0.655414	1662.656006
4205.518644	0.088813	0.655414	1743.209839
4206.479601	0.867294	0.597180	405.026154
4206.480509	0.568923	0.597180	921.608521
4206.481399	0.095676	0.597180	1006.760376
4206.482354	0.088781	0.597180	1091.545776
4206.483271	0.088949	0.597180	1173.111938
4206.484189	0.088865	0.597180	1254.689819
4206.485076	0.088876	0.597180	1333.522583
4206.486039	0.088912	0.597180	1419.145142
4206.486965	0.088857	0.597180	1501.427124
4206.487863	0.088872	0.597180	1581.234253
4206.488781	0.088872	0.597180	1662.818848
4206.489718	0.088865	0.597180	1746.085083
4207.518177	0.864111	0.673590	389.714233
4207.519081	0.591284	0.673590	924.235168
4207.519969	0.096592	0.673590	1010.008667
4207.520917	0.088890	0.673590	1094.276733
4207.521817	0.088868	0.673590	1174.258301
4207.522739	0.088872	0.673590	1256.198364
4207.523627	0.088923	0.673590	1335.162231
4207.524589	0.088912	0.673590	1420.695923
4207.525492	0.088865	0.673590	1500.940796
4207.526383	0.088857	0.673590	1580.112793
4207.527321	0.088901	0.673590	1663.502319
4207.528237	0.088876	0.673590	1744.912476
4208.503512	0.862786	0.613713	383.939606
4208.504407	0.597795	0.613713	918.966553
4208.505379	0.094768	0.613713	1011.081116
4208.506304	0.088777	0.613713	1093.199707
4208.507198	0.088912	0.613713	1172.687378
4208.508112	0.088872	0.613713	1253.916504
4208.509050	0.088821	0.613713	1337.230469
4208.509979	0.088868	0.613713	1419.789185
4208.510874	0.088846	0.613713	1499.306763
4208.511782	0.088773	0.613713	1579.912842
4208.512712	0.088890	0.613713	1662.580933
4208.513651	0.088854	0.613713	1746.014648
4209.530323	0.865679	0.686114	380.898651
4209.531230	0.599700	0.686114	924.826294
4209.532122	0.096577	0.686114	1010.973083
4209.533027	0.088813	0.686114	1091.349243
4209.533977	0.088868	0.686114	1175.774170
4209.534872	0.088817	0.686114	1255.265503
4209.535764	0.088854	0.686114	1334.523071
4209.536704	0.088839	0.686114	1418.031860
4209.537607	0.088813	0.686114	1498.230469
4209.538513	0.088931	0.686114	1578.801636
4209.539402	0.088905	0.686114	1657.838257
4209.540343	0.089055	0.686114	1741.639160
4210.524648	0.889775	0.626777	415.525116
4210.525594	0.517123	0.626777	904.723267
4210.526522	0.093083	0.626777	991.104736
4210.527410	0.088755	0.626777	1069.919067
4210.528361	0.088854	0.626777	1154.418945
4210.529304	0.088923	0.626777	1238.273682
4210.530204	0.088920	0.626777	1318.301392
4210.531127	0.088843	0.626777	1400.303223
4210.532062	0.088868	0.626777	1483.395142
4210.532970	0.088850	0.626777	1564.071045
4210.533865	0.088865	0.626777	1643.604980
4210.534814	0.088832	0.626777	1727.906372
4211.545288	0.850305	0.674266	369.032471
4211.546221	0.597491	0.674266	926.492004
4211.547140	0.094622	0.674266	1013.449219
4211.548048	0.088748	0.674266	1094.031982
4211.548938	0.088854	0.674266	1173.111816
4211.549882	0.088857	0.674266	1256.993164
4211.550790	0.088883	0.674266	1337.698975
4211.551683	0.088909	0.674266	1417.094482
4211.552569	0.088887	0.674266	1495.848145
4211.553506	0.088912	0.674266	1579.159058
4211.554402	0.088835	0.674266	1658.755615
4211.555294	0.088839	0.674266	1738.000122
4212.543692	0.857516	0.638753	377.306976
4212.544636	0.554220	0.638753	900.490601
4212.545577	0.093959	0.638753	988.905762
4212.546496	0.088872	0.638753	1070.579224
4212.547389	0.088868	0.638753	1149.938721
4212.548332	0.088898	0.638753	1233.769287
4212.549273	0.088905	0.638753	1317.428955
4212.550168	0.088909	0.638753	1397.002197
4212.551080	0.088887	0.638753	1478.066895
4212.552012	0.088912	0.638753	1560.933228
4212.552922	0.088876	0.638753	1641.810181
4212.553807	0.088817	0.638753	1720.413330
4213.563358	0.868916	0.656614	388.405457
4213.564258	0.596671	0.656614	925.409485
4213.565142	0.097101	0.656614	1011.246643
4213.566082	0.088799	0.656614	1094.717529
4213.566991	0.088898	0.656614	1175.525513
4213.567900	0.088916	0.656614	1256.350220
4213.568794	0.088938	0.656614	1335.860840
4213.569748	0.088920	0.656614	1420.690186
4213.570653	0.088854	0.656614	1501.102783
4213.571554	0.088920	0.656614	1581.219360
4213.572481	0.088905	0.656614	1663.634277
4213.573386	0.089008	0.656614	1744.186157
4214.556618	0.864060	0.661799	380.186432
4214.557586	0.533895	0.661799	896.997070
4214.558520	0.093505	0.661799	984.330383
4214.559413	0.088861	0.661799	1063.683350
4214.560352	0.088920	0.661799	1147.178955
4214.561273	0.088824	0.661799	1228.986328
4214.562193	0.088901	0.661799	1310.775635
4214.563088	0.088923	0.661799	1390.362061
4214.564026	0.088901	0.661799	1473.751587
4214.564952	0.088898	0.661799	1556.070801
4214.565869	0.088879	0.661799	1637.573242
4214.566754	0.088850	0.661799	1716.205566
4215.582694	0.864932	0.656393	404.787994
4215.583613	0.553304	0.656393	913.274780
4215.584501	0.095266	0.656393	997.871094
4215.585467	0.088832	0.656393	1083.682617
4215.586372	0.088923	0.656393	1164.158203
4215.587279	0.088824	0.656393	1244.721924
4215.588176	0.088879	0.656393	1324.446777
4215.589118	0.088971	0.656393	1408.257446
4215.590018	0.088916	0.656393	1488.281860
4215.590909	0.088894	0.656393	1567.486450
4215.591798	0.088872	0.656393	1646.493774
4215.592750	0.088879	0.656393	1731.106934
4216.567522	0.874054	0.690674	393.324280
4216.568424	0.589508	0.690674	925.060547
4216.569311	0.096515	0.690674	1010.669250
4216.570272	0.088832	0.690674	1096.036621
4216.571174	0.088887	0.690674	1176.212402
4216.572062	0.088813	0.690674	1255.078735
4216.572998	0.088876	0.690674	1338.266357
4216.573901	0.088868	0.690674	1418.514526
4216.574821	0.088887	0.690674	1500.290283
4216.575715	0.088861	0.690674	1579.732056
4216.576656	0.088923	0.690674	1663.408936
4216.577564	0.088832	0.690674	1744.068237
4217.605618	0.881488	0.626555	417.825317
4217.606529	0.549869	0.626555	918.756348
4217.607422	0.095270	0.626555	1003.832275
4217.608373	0.089044	0.626555	1088.513306
4217.609308	0.089125	0.626555	1171.844971
4217.610203	0.089048	0.626555	1251.542847
4217.611119	0.089070	0.626555	1333.130859
4217.612051	0.089044	0.626555	1416.119995
4217.612987	0.089026	0.626555	1499.448242
4217.613874	0.089059	0.626555	1578.443481
4217.614811	0.089037	0.626555	1661.870972
4217.615734	0.089154	0.626555	1744.160156
4218.577369	0.872714	0.688966	395.339264
4218.578268	0.589025	0.688966	924.872437
4218.579222	0.095087	0.688966	1015.585083
4218.580129	0.088931	0.688966	1096.245239
4218.581017	0.089004	0.688966	1175.280762
4218.581905	0.088960	0.688966	1254.277222
4218.582839	0.088993	0.688966	1337.396606
4218.583746	0.088923	0.688966	1418.050049
4218.584663	0.088978	0.688966	1499.643066
4218.585560	0.088964	0.688966	1579.443481
4218.586496	0.088960	0.688966	1662.709961
4218.587407	0.088898	0.688966	1743.695801
4219.628769	0.866708	0.614377	390.018524
4219.629677	0.586388	0.614377	922.458740
4219.630595	0.096152	0.614377	1010.726562
4219.631521	0.088879	0.614377	1093.028931
4219.632451	0.088843	0.614377	1175.652710
4219.633348	0.088989	0.614377	1255.476074
4219.634266	0.088938	0.614377	1337.121094
4219.635201	0.088927	0.614377	1420.267822
4219.636141	0.088953	0.614377	1503.883301
4219.637041	0.088912	0.614377	1583.904419
4219.637958	0.088942	0.614377	1665.463867
4219.638894	0.088890	0.614377	1748.665283
4220.590543	0.866481	0.681602	384.717438
4220.591442	0.600450	0.681602	924.522339
4220.592385	0.095057	0.681602	1014.161438
4220.593304	0.088854	0.681602	1095.817993
4220.594207	0.089022	0.681602	1176.205078
4220.595095	0.088949	0.681602	1255.191772
4220.596044	0.088971	0.681602	1339.625244
4220.596944	0.088890	0.681602	1419.626587
4220.597838	0.088986	0.681602	1499.179687
4220.598780	0.089008	0.681602	1583.024780
4220.599688	0.089052	0.681602	1663.883545
4220.600591	0.088931	0.681602	1744.187988
4221.648859	0.865690	0.618555	388.694672
4221.649760	0.594712	0.618555	924.530151
4221.650685	0.096317	0.618555	1013.623535
4221.651629	0.088927	0.618555	1097.570679
4221.652545	0.088978	0.618555	1179.074829
4221.653432	0.088945	0.618555	1257.969360
4221.654370	0.088876	0.618555	1341.334839
4221.655293	0.088898	0.618555	1423.387451
4221.656191	0.088953	0.618555	1503.266968
4221.657111	0.088934	0.618555	1585.086548
4221.658054	0.088960	0.618555	1668.975830
4221.658970	0.088989	0.618555	1750.489990
4222.604237	0.860035	0.693091	378.415588
4222.605194	0.573776	0.693091	927.518799
4222.606107	0.093896	0.693091	1013.246277
4222.607023	0.088894	0.693091	1094.673218
4222.607915	0.088989	0.693091	1174.051636
4222.608861	0.089052	0.693091	1258.294434
4222.609775	0.088898	0.693091	1339.546875
4222.610677	0.089059	0.693091	1419.877930
4222.611569	0.088982	0.693091	1499.249756
4222.612511	0.089015	0.693091	1583.101807
4222.613406	0.088912	0.693091	1662.678345
4222.614295	0.088949	0.693091	1741.754028
4223.668685	0.855604	0.602538	375.610260
4223.669580	0.614835	0.602538	925.887817
4223.670519	0.095402	0.602538	1015.469910
4223.671450	0.088784	0.602538	1098.127930
4223.672368	0.088861	0.602538	1179.702393
4223.673254	0.088942	0.602538	1258.504639
4223.674196	0.088971	0.602538	1342.315308
4223.675128	0.088993	0.602538	1425.256714
4223.676019	0.088960	0.602538	1504.520020
4223.676939	0.088927	0.602538	1586.332886
4223.677880	0.088960	0.602538	1670.044189
4223.678807	0.089000	0.602538	1752.547363
4224.619487	0.872073	0.705832	392.432739
4224.620388	0.592540	0.705832	926.311523
4224.621275	0.096764	0.705832	1012.141113
4224.622232	0.088964	0.705832	1097.279297
4224.623129	0.088949	0.705832	1177.066528
4224.624024	0.088989	0.705832	1256.711914
4224.624958	0.088989	0.705832	1339.827881
4224.625876	0.089030	0.705832	1421.557007
4224.626783	0.088989	0.705832	1502.270264
4224.627675	0.089041	0.705832	1581.694458
4224.628614	0.089015	0.705832	1665.279419
4224.629528	0.088931	0.705832	1746.562012
4225.687290	0.907958	0.598594	436.727692
4225.688237	0.498098	0.598594	908.426636
4225.689160	0.093047	0.598594	994.308899
4225.690046	0.088857	0.598594	1073.036621
4225.690993	0.088964	0.598594	1157.285156
4225.691934	0.088989	0.598594	1241.024048
4225.692824	0.088916	0.598594	1320.159302
4225.693737	0.088861	0.598594	1401.289429
4225.694668	0.088916	0.598594	1484.070190
4225.695580	0.088986	0.598594	1565.225098
4225.696479	0.088909	0.598594	1645.154053
4225.697428	0.088898	0.598594	1729.517944
4226.636255	0.866953	0.700825	390.128906
4226.637160	0.585681	0.700825	920.170349
4226.638095	0.096302	0.700825	1010.213196
4226.639009	0.088942	0.700825	1091.505859
4226.639910	0.088942	0.700825	1171.642334
4226.640798	0.088993	0.700825	1250.668091
4226.641728	0.089037	0.700825	1333.472412
4226.642643	0.088960	0.700825	1414.870728
4226.643542	0.088986	0.700825	1494.868774
4226.644430	0.088964	0.700825	1573.868408
4226.645362	0.089037	0.700825	1656.850708
4226.646280	0.089008	0.700825	1738.559692
4227.703801	0.896510	0.602695	433.014343
4227.704741	0.510425	0.602695	912.813660
4227.705665	0.093300	0.602695	999.022461
4227.706550	0.088883	0.602695	1077.683960
4227.707490	0.089004	0.602695	1161.347656
4227.708415	0.088942	0.602695	1243.618652
4227.709316	0.088993	0.602695	1323.801270
4227.710239	0.088942	0.602695	1405.894409
4227.711175	0.088912	0.602695	1489.116333
4227.712095	0.088986	0.602695	1570.983032
4227.712988	0.088898	0.602695	1650.368652
4227.713934	0.088916	0.602695	1734.483154
4228.653779	0.857523	0.697703	375.595154
4228.654733	0.568326	0.697703	917.778564
4228.655647	0.094292	0.697703	1003.961426
4228.656545	0.088843	0.697703	1083.742187
4228.657438	0.088967	0.697703	1163.189941
4228.658370	0.089011	0.697703	1246.148437
4228.659281	0.088997	0.697703	1327.224365
4228.660188	0.088971	0.697703	1407.921021
4228.661075	0.088982	0.697703	1486.848022
4228.662014	0.088989	0.697703	1570.408936
4228.662917	0.089000	0.697703	1650.776123
4228.663806	0.089004	0.697703	1729.900635
4229.719555	0.889343	0.619554	440.224915
4229.720503	0.494755	0.619554	909.252319
4229.721422	0.092761	0.619554	994.499878
4229.722317	0.088949	0.619554	1074.109253
4229.723254	0.088931	0.619554	1157.437256
4229.724197	0.088989	0.619554	1241.354126
4229.725100	0.088964	0.619554	1321.688232
4229.726015	0.088949	0.619554	1403.076538
4229.726943	0.088920	0.619554	1485.593994
4229.727876	0.089000	0.619554	1568.631226
4229.728773	0.089022	0.619554	1648.484131
4229.729702	0.088927	0.619554	1731.097290
4230.671320	0.869370	0.685679	385.130951
4230.672261	0.554103	0.685679	906.541626
4230.673157	0.095039	0.685679	991.696655
4230.674089	0.088920	0.685679	1074.569824
4230.674994	0.089037	0.685679	1155.148193
4230.675896	0.088942	0.685679	1235.373535
4230.676789	0.088909	0.685679	1314.769043
4230.677747	0.089033	0.685679	1400.062866
4230.678645	0.088975	0.685679	1479.962036
4230.679546	0.088956	0.685679	1560.111694
4230.680443	0.088997	0.685679	1639.941650
4230.681369	0.089022	0.685679	1722.376221
4231.737069	0.898469	0.624186	419.585144
4231.737982	0.555828	0.624186	927.055786
4231.738900	0.095262	0.624186	1014.506714
4231.739841	0.088879	0.624186	1098.142212
4231.740788	0.088905	0.624186	1182.335327
4231.741688	0.088945	0.624186	1262.386108
4231.742604	0.088953	0.624186	1343.866699
4231.743532	0.089008	0.624186	1426.465698
4231.744453	0.089008	0.624186	1508.441650
4231.745340	0.088901	0.624186	1587.297119
4231.746283	0.088949	0.624186	1671.176025
4231.747204	0.088916	0.624186	1753.067627
4232.687821	0.856025	0.692176	374.939117
4232.688744	0.588105	0.692176	917.760498
4232.689637	0.096310	0.692176	1003.765137
4232.690570	0.088942	0.692176	1086.747681
4232.691470	0.089004	0.692176	1166.851196
4232.692367	0.088927	0.692176	1246.618652
4232.693253	0.088868	0.692176	1325.356079
4232.694190	0.088986	0.692176	1408.735596
4232.695092	0.089030	0.692176	1489.040283
4232.696002	0.088978	0.692176	1570.010498
4232.696898	0.088905	0.692176	1649.669434
4232.697842	0.088997	0.692176	1733.682251
4233.753083	0.882187	0.628779	423.449982
4233.754028	0.523510	0.628779	918.166504
4233.754918	0.094021	0.628779	1001.845215
4233.755836	0.088865	0.628779	1083.423096
4233.756782	0.088975	0.628779	1167.593018
4233.757702	0.088912	0.628779	1249.392334
4233.758602	0.088901	0.628779	1329.403564
4233.759544	0.088923	0.628779	1413.169312
4233.760474	0.088997	0.628779	1495.936157
4233.761380	0.088949	0.628779	1576.523926
4233.762291	0.088912	0.628779	1657.523071
4233.763221	0.088938	0.628779	1740.235352
4234.704846	0.864049	0.696652	378.453491
4234.705761	0.591299	0.696652	919.491882
4234.706649	0.096676	0.696652	1005.340210
4234.707610	0.088993	0.696652	1090.862427
4234.708516	0.088916	0.696652	1171.420288
4234.709412	0.088956	0.696652	1251.125122
4234.710350	0.088931	0.696652	1334.542114
4234.711253	0.088964	0.696652	1414.876221
4234.712148	0.088938	0.696652	1494.475708
4234.713039	0.088898	0.696652	1573.683594
4234.713961	0.088824	0.696652	1655.579712
4234.714875	0.088971	0.696652	1736.899170
4235.771104	0.883462	0.614176	402.858612
4235.772002	0.582909	0.614176	926.310791
4235.772945	0.094545	0.614176	1015.466431
4235.773878	0.088788	0.614176	1098.305542
4235.774795	0.089011	0.614176	1179.928833
4235.775681	0.088920	0.614176	1258.711670
4235.776618	0.088960	0.614176	1342.067139
4235.777559	0.088956	0.614176	1425.775024
4235.778461	0.088923	0.614176	1505.983887
4235.779375	0.088883	0.614176	1587.223022
4235.780314	0.088909	0.614176	1670.708252
4235.781232	0.088934	0.614176	1752.349976
4236.722638	0.854374	0.700531	372.506989
4236.723535	0.594891	0.700531	906.124512
4236.724502	0.094087	0.700531	997.106567
4236.725410	0.088923	0.700531	1077.848999
4236.726303	0.088986	0.700531	1157.313110
4236.727240	0.089000	0.700531	1240.706299
4236.728145	0.088894	0.700531	1321.155396
4236.729042	0.088920	0.700531	1400.916382
4236.729931	0.088887	0.700531	1479.936646
4236.730871	0.088978	0.700531	1563.576172
4236.731775	0.088854	0.700531	1643.900024
4236.732675	0.088927	0.700531	1723.934326
4237.786860	0.876903	0.622156	403.375397
4237.787774	0.565917	0.622156	920.623291
4237.788658	0.095845	0.622156	1005.350037
4237.789610	0.088828	0.622156	1089.914429
4237.790551	0.088938	0.622156	1173.605103
4237.791441	0.089019	0.622156	1252.831665
4237.792355	0.088894	0.622156	1334.080811
4237.793292	0.088894	0.622156	1417.374512
4237.794221	0.088964	0.622156	1500.021729
4237.795124	0.088997	0.622156	1580.385620
4237.796044	0.088898	0.622156	1662.171509
4237.796978	0.088923	0.622156	1745.225952
4238.742222	0.856560	0.687334	379.456116
4238.743122	0.603959	0.687334	923.018982
4238.744073	0.096548	0.687334	1014.835999
4238.744976	0.088923	0.687334	1095.133789
4238.745893	0.088949	0.687334	1176.699951
4238.746781	0.088854	0.687334	1255.602051
4238.747730	0.088960	0.687334	1340.025024
4238.748630	0.088916	0.687334	1420.049438
4238.749545	0.088927	0.687334	1501.417603
4238.750444	0.088894	0.687334	1581.333374
4238.751394	0.088868	0.687334	1665.758301
4238.752298	0.088967	0.687334	1746.184692
4239.802367	0.877511	0.631425	428.225342
4239.803325	0.491990	0.631425	899.551514
4239.804244	0.092585	0.631425	984.637512
4239.805148	0.088879	0.631425	1064.984497
4239.806069	0.088934	0.631425	1146.893066
4239.806994	0.088883	0.631425	1229.109863
4239.807922	0.088934	0.631425	1311.640869
4239.808809	0.088938	0.631425	1390.528809
4239.809757	0.088905	0.631425	1474.810791
4239.810688	0.088872	0.631425	1557.550659
4239.811584	0.088953	0.631425	1637.252197
4239.812506	0.088909	0.631425	1719.226074
4240.760793	0.866206	0.695939	381.996857
4240.761709	0.584063	0.695939	916.998169
4240.762600	0.096193	0.695939	1002.705811
4240.763549	0.088901	0.695939	1087.073242
4240.764456	0.088927	0.695939	1167.729980
4240.765350	0.088956	0.695939	1247.256958
4240.766240	0.088956	0.695939	1326.428101
4240.767171	0.089062	0.695939	1409.345337
4240.768084	0.088953	0.695939	1490.559082
4240.768989	0.089004	0.695939	1571.107666
4240.769885	0.089000	0.695939	1650.851929
4240.770825	0.088989	0.695939	1734.501831
4241.816808	0.898433	0.628517	413.278992
4241.817754	0.519441	0.628517	904.670166
4241.818652	0.094124	0.628517	989.193115
4241.819609	0.088777	0.628517	1074.152588
4241.820540	0.088982	0.628517	1156.994751
4241.821442	0.088982	0.628517	1237.256470
4241.822369	0.088843	0.628517	1319.613770
4241.823301	0.088923	0.628517	1402.490356
4241.824217	0.088956	0.628517	1483.974365
4241.825103	0.088923	0.628517	1562.760498
4241.826037	0.089004	0.628517	1645.890137
4241.826977	0.088938	0.628517	1729.491821
4242.780420	0.897696	0.703939	445.257446
4242.781345	0.522524	0.703939	928.592529
4242.782264	0.093380	0.703939	1014.408875
4242.783151	0.088861	0.703939	1093.228638
4242.784088	0.088956	0.703939	1176.580688
4242.784998	0.088931	0.703939	1257.507568
4242.785922	0.088901	0.703939	1339.652466
4242.786814	0.088872	0.703939	1418.926392
4242.787761	0.088905	0.703939	1503.119507
4242.788660	0.088876	0.703939	1583.018799
4242.789549	0.088975	0.703939	1662.117187
4242.790490	0.088920	0.703939	1745.790649
4243.830479	0.863405	0.616996	382.488220
4243.831393	0.586871	0.616996	918.888611
4243.832284	0.096632	0.616996	1004.987793
4243.833239	0.089037	0.616996	1090.017944
4243.834141	0.089059	0.616996	1170.348999
4243.835035	0.088960	0.616996	1249.879150
4243.835964	0.088997	0.616996	1332.557007
4243.836872	0.089004	0.616996	1413.372559
4243.837772	0.088872	0.616996	1493.357422
4243.838668	0.088978	0.616996	1573.081909
4243.839604	0.088953	0.616996	1656.341553
4243.840511	0.089000	0.616996	1737.064819
4244.801999	0.857615	0.697820	379.923340
4244.802892	0.610833	0.697820	925.396790
4244.803838	0.094860	0.697820	1015.133972
4244.804747	0.088901	0.697820	1095.945312
4244.805667	0.088975	0.697820	1177.802002
4244.806557	0.088967	0.697820	1256.982910
4244.807508	0.088945	0.697820	1341.569946
4244.808408	0.088986	0.697820	1421.656982
4244.809294	0.088982	0.697820	1500.494995
4244.810246	0.089066	0.697820	1585.286011
4244.811152	0.088945	0.697820	1665.870483
4244.812075	0.088945	0.697820	1747.967041
4245.842125	0.866913	0.633460	382.308563
4245.843106	0.504302	0.633460	877.028564
4245.844010	0.093618	0.633460	961.659363
4245.844909	0.088876	0.633460	1041.558594
4245.845842	0.088953	0.633460	1124.551392
4245.846744	0.089004	0.633460	1204.832886
4245.847635	0.088934	0.633460	1284.073364
4245.848521	0.089044	0.633460	1362.966553
4245.849456	0.089022	0.633460	1446.202271
4245.850362	0.089041	0.633460	1526.873047
4245.851265	0.088938	0.633460	1607.184082
4245.852155	0.088956	0.633460	1686.355225
4246.822865	0.868165	0.689373	388.938049
4246.823850	0.508129	0.689373	889.444824
4246.824741	0.093589	0.689373	972.832520
4246.825628	0.088876	0.689373	1051.665283
4246.826551	0.088901	0.689373	1133.721191
4246.827468	0.088835	0.689373	1215.183350
4246.828373	0.088890	0.689373	1295.629150
4246.829265	0.088949	0.689373	1374.971680
4246.830172	0.088876	0.689373	1455.582031
4246.831112	0.088964	0.689373	1539.207886
4246.832029	0.088960	0.689373	1620.784180
4246.832915	0.088956	0.689373	1699.599487
4247.853777	0.862764	0.654660	384.792603
4247.854683	0.594071	0.654660	923.020935
4247.855631	0.096204	0.654660	1014.221924
4247.856536	0.088931	0.654660	1094.704224
4247.857434	0.088949	0.654660	1174.580444
4247.858322	0.088883	0.654660	1253.508545
4247.859266	0.089011	0.654660	1337.535156
4247.860164	0.088846	0.654660	1417.319214
4247.861063	0.088945	0.654660	1497.281006
4247.861952	0.088920	0.654660	1576.330566
4247.862899	0.088989	0.654660	1660.603394
4247.863805	0.088872	0.654660	1741.121460
4248.844497	0.859010	0.690992	380.541412
4248.845402	0.598315	0.690992	922.016846
4248.846288	0.096962	0.690992	1007.924866
4248.847241	0.088817	0.690992	1092.567627
4248.848150	0.088916	0.690992	1173.392334
4248.849042	0.088876	0.690992	1252.669434
4248.849952	0.088916	0.690992	1333.583008
4248.850892	0.088912	0.690992	1417.160645
4248.851815	0.088923	0.690992	1499.236938
4248.852709	0.088931	0.690992	1578.740967
4248.853650	0.088909	0.690992	1662.404053
4248.854554	0.088942	0.690992	1742.807251
4249.867467	0.856611	0.682351	375.195770
4249.868360	0.606398	0.682351	916.708862
4249.869315	0.094937	0.682351	1007.373230
4249.870224	0.088890	0.682351	1088.174561
4249.871122	0.088909	0.682351	1168.014526
4249.872062	0.088956	0.682351	1251.633423
4249.872959	0.088993	0.682351	1331.460083
4249.873865	0.088890	0.682351	1411.994751
4249.874757	0.088964	0.682351	1491.350342
4249.875691	0.089019	0.682351	1574.493652
4249.876602	0.088971	0.682351	1655.546143
4249.877508	0.088975	0.682351	1736.157104
4250.864390	0.912539	0.678992	442.581451
4250.865317	0.510520	0.678992	915.833496
4250.866217	0.093772	0.678992	1000.228271
4250.867141	0.088832	0.678992	1082.308838
4250.868083	0.088923	0.678992	1166.074585
4250.868996	0.089008	0.678992	1247.338501
4250.869885	0.088964	0.678992	1326.427124
4250.870839	0.088898	0.678992	1411.235596
4250.871774	0.088876	0.678992	1494.334351
4250.872668	0.088960	0.678992	1573.864502
4250.873597	0.088982	0.678992	1656.528687
4250.874531	0.088854	0.678992	1739.518066
4251.883477	0.869978	0.697425	391.490112
4251.884377	0.594467	0.697425	926.510010
4251.885320	0.095977	0.697425	1017.015930
4251.886222	0.088960	0.697425	1097.257812
4251.887120	0.088953	0.697425	1177.137329
4251.888010	0.088960	0.697425	1256.311646
4251.888967	0.089037	0.697425	1341.519897
4251.889860	0.088938	0.697425	1420.941528
4251.890766	0.088982	0.697425	1501.559204
4251.891656	0.089011	0.697425	1580.779175
4251.892598	0.089062	0.697425	1664.676025
4251.893505	0.088938	0.697425	1745.342773
4252.882386	0.856095	0.657029	373.257416
4252.883331	0.573171	0.657029	914.904419
4252.884252	0.094497	0.657029	1001.936218
4252.885175	0.088931	0.657029	1084.019287
4252.886058	0.088953	0.657029	1162.564453
4252.886988	0.088894	0.657029	1245.235962
4252.887923	0.088865	0.657029	1328.324463
4252.888848	0.088872	0.657029	1410.531128
4252.889743	0.088923	0.657029	1490.117554
4252.890668	0.088865	0.657029	1572.317505
4252.891605	0.088883	0.657029	1655.600952
4252.892523	0.088971	0.657029	1737.276245
4253.902293	0.869161	0.699629	389.384277
4253.903215	0.577321	0.699629	921.673828
4253.904122	0.095259	0.699629	1008.073547
4253.905060	0.089015	0.699629	1091.569458
4253.905957	0.089084	0.699629	1171.478271
4253.906856	0.088982	0.699629	1251.473022
4253.907744	0.088953	0.699629	1330.463013
4253.908672	0.089073	0.699629	1413.123169
4253.909577	0.089008	0.699629	1493.675049
4253.910482	0.088978	0.699629	1574.200439
4253.911369	0.089033	0.699629	1653.172852
4253.912322	0.088993	0.699629	1737.983154
4254.897398	0.904805	0.646406	429.782227
4254.898334	0.515028	0.646406	911.848511
4254.899224	0.094233	0.646406	995.716248
4254.900155	0.088931	0.646406	1078.510742
4254.901094	0.088978	0.646406	1162.061279
4254.902008	0.089015	0.646406	1243.420898
4254.902899	0.088960	0.646406	1322.684204
4254.903831	0.088868	0.646406	1405.509521
4254.904768	0.088949	0.646406	1488.854736
4254.905663	0.089033	0.646406	1568.539429
4254.906580	0.088964	0.646406	1650.119019
4254.907516	0.088938	0.646406	1733.364990
4255.922654	0.875914	0.689808	395.037354
4255.923561	0.584019	0.689808	924.742187
4255.924447	0.096621	0.689808	1010.348511
4255.925381	0.089052	0.689808	1093.522583
4255.926298	0.089088	0.689808	1175.216431
4255.927198	0.089070	0.689808	1255.379272
4255.928137	0.089143	0.689808	1339.084595
4255.929041	0.089117	0.689808	1419.646729
4255.929947	0.089084	0.689808	1500.357300
4255.930832	0.089059	0.689808	1579.174316
4255.931784	0.089136	0.689808	1664.031494
4255.932683	0.089084	0.689808	1744.118408
4256.910049	0.883568	0.643522	401.139923
4256.911013	0.508894	0.643522	891.713745
4256.911934	0.093483	0.643522	977.811279
4256.912821	0.088986	0.643522	1056.741455
4256.913769	0.089052	0.643522	1141.162354
4256.914700	0.088953	0.643522	1223.977295
4256.915594	0.088989	0.643522	1303.533691
4256.916514	0.088989	0.643522	1385.403809
4256.917453	0.088953	0.643522	1468.930298
4256.918374	0.088953	0.643522	1550.855713
4256.919264	0.089030	0.643522	1630.092041
4256.920214	0.088956	0.643522	1714.600586
4257.944008	0.855886	0.670351	374.022278
4257.944978	0.526007	0.670351	884.249146
4257.945885	0.094076	0.670351	969.575989
4257.946789	0.088945	0.670351	1049.982544
4257.947673	0.088971	0.670351	1128.632812
4257.948619	0.089033	0.670351	1212.858276
4257.949528	0.088923	0.670351	1293.689575
4257.950416	0.088931	0.670351	1372.660034
4257.951360	0.088960	0.670351	1456.638184
4257.952251	0.089033	0.670351	1535.966797
4257.953154	0.089004	0.670351	1616.337280
4257.954044	0.089019	0.670351	1695.563843
4258.920435	0.887314	0.665895	424.136292
4258.921341	0.553495	0.665895	925.602661
4258.922233	0.095292	0.665895	1010.602905
4258.923196	0.088876	0.665895	1096.190186
4258.924121	0.088945	0.665895	1178.464600
4258.925017	0.088997	0.665895	1258.205566
4258.925950	0.088960	0.665895	1341.205200
4258.926872	0.088890	0.665895	1423.162109
4258.927788	0.088993	0.665895	1504.679565
4258.928678	0.089033	0.665895	1583.919067
4258.929626	0.088975	0.665895	1668.266968
4258.930557	0.088942	0.665895	1751.071655
4259.965407	0.871179	0.654262	388.545929
4259.966307	0.598726	0.654262	927.398926
4259.967196	0.097097	0.654262	1013.718323
4259.968151	0.088916	0.654262	1098.633057
4259.969055	0.089070	0.654262	1179.152222
4259.969952	0.089026	0.654262	1259.008423
4259.970865	0.088960	0.654262	1340.228882
4259.971793	0.089070	0.654262	1422.885620
4259.972705	0.088938	0.654262	1503.997070
4259.973602	0.089008	0.654262	1583.836914
4259.974530	0.089000	0.654262	1666.429199
4259.975427	0.089052	0.654262	1746.308350
4260.931542	0.867330	0.685243	384.227325
4260.932437	0.589757	0.685243	912.059937
4260.933397	0.094830	0.685243	1003.097046
4260.934315	0.088883	0.685243	1084.691650
4260.935203	0.089008	0.685243	1163.730347
4260.936124	0.088964	0.685243	1245.665894
4260.937061	0.088956	0.685243	1329.017944
4260.937981	0.088982	0.685243	1410.881348
4260.938881	0.089004	0.685243	1490.984863
4260.939816	0.088989	0.685243	1574.189819
4260.940754	0.088964	0.685243	1657.637695
4260.941656	0.088927	0.685243	1737.849854
4261.984990	0.868096	0.652667	388.906860
4261.985920	0.572212	0.652667	921.063965
4261.986811	0.095585	0.652667	1006.229980
4261.987737	0.088920	0.652667	1088.569580
4261.988644	0.089088	0.652667	1169.372559
4261.989546	0.089073	0.652667	1249.716797
4261.990430	0.089008	0.652667	1328.399536
4261.991384	0.089077	0.652667	1413.379150
4261.992285	0.088905	0.652667	1493.482544
4261.993178	0.089033	0.652667	1572.989258
4261.994108	0.088975	0.652667	1655.735596
4261.995015	0.088978	0.652667	1736.438843
4262.944970	0.854520	0.705478	373.425354
4262.945906	0.572842	0.705478	909.605286
4262.946846	0.094131	0.705478	998.088318
4262.947765	0.088938	0.705478	1079.822388
4262.948666	0.088934	0.705478	1159.952271
4262.949605	0.089008	0.705478	1243.530396
4262.950545	0.088978	0.705478	1327.169922
4262.951447	0.088967	0.705478	1407.418457
4262.952349	0.088912	0.705478	1487.617432
4262.953287	0.089004	0.705478	1571.103149
4262.954227	0.088942	0.705478	1654.708252
4262.955118	0.089030	0.705478	1734.033569
4264.004612	0.913319	0.649351	449.352966
4264.005541	0.507612	0.649351	920.924805
4264.006448	0.093538	0.649351	1005.763428
4264.007340	0.088835	0.649351	1085.004639
4264.008288	0.089073	0.649351	1169.446289
4264.009194	0.088861	0.649351	1249.954468
4264.010085	0.088978	0.649351	1329.234131
4264.011003	0.088989	0.649351	1410.926270
4264.011911	0.088920	0.649351	1491.665283
4264.012813	0.089048	0.649351	1571.986450
4264.013700	0.089088	0.649351	1651.007568
4264.014632	0.089055	0.649351	1734.006958
4264.961228	0.855168	0.709224	373.708588
4264.962121	0.611836	0.709224	920.078125
4264.963095	0.095200	0.709224	1012.803101
4264.964029	0.088828	0.709224	1095.768555
4264.964931	0.088934	0.709224	1175.987305
4264.965854	0.088964	0.709224	1258.100708
4264.966780	0.088901	0.709224	1340.423340
4264.967713	0.088949	0.709224	1423.412720
4264.968610	0.089008	0.709224	1503.252563
4264.969534	0.088843	0.709224	1585.343262
4264.970475	0.088890	0.709224	1668.989136
4264.971385	0.088989	0.709224	1749.969360
4266.022105	0.869978	0.659261	389.750153
4266.023010	0.590804	0.659261	924.428223
4266.023900	0.096515	0.659261	1010.326477
4266.024830	0.088964	0.659261	1093.062622
4266.025746	0.088938	0.659261	1174.529785
4266.026668	0.088909	0.659261	1256.503662
4266.027558	0.089000	0.659261	1335.713867
4266.028512	0.088942	0.659261	1420.564209
4266.029403	0.089000	0.659261	1499.863403
4266.030296	0.088956	0.659261	1579.301392
4266.031217	0.088920	0.659261	1661.196411
4266.032134	0.088912	0.659261	1742.729004
4266.978010	0.871934	0.710465	394.113983
4266.978913	0.585802	0.710465	923.093140
4266.979840	0.095394	0.710465	1011.523682
4266.980786	0.088883	0.710465	1095.607056
4266.981704	0.088912	0.710465	1177.228638
4266.982596	0.088967	0.710465	1256.587402
4266.983548	0.088997	0.710465	1341.312134
4266.984486	0.088934	0.710465	1424.732544
4266.985377	0.088949	0.710465	1503.986084
4266.986295	0.088931	0.710465	1585.624390
4266.987232	0.088975	0.710465	1668.993652
4266.988155	0.088879	0.710465	1751.029297
4268.039139	0.875489	0.664896	400.974182
4268.040039	0.584103	0.664896	926.666687
4268.040927	0.096409	0.664896	1012.277588
4268.041873	0.088854	0.664896	1096.333252
4268.042787	0.088879	0.664896	1177.568970
4268.043700	0.088876	0.664896	1258.712524
4268.044588	0.088934	0.664896	1337.686157
4268.045529	0.088901	0.664896	1421.342285
4268.046453	0.088843	0.664896	1503.432983
4268.047346	0.088967	0.664896	1582.880737
4268.048302	0.088894	0.664896	1667.863403
4268.049200	0.088898	0.664896	1747.693604
4268.995036	0.872996	0.697615	393.721008
4268.995935	0.590768	0.697615	924.821289
4268.996880	0.095999	0.697615	1015.539917
4268.997781	0.088931	0.697615	1095.666504
4268.998682	0.088832	0.697615	1175.703979
4268.999568	0.088905	0.697615	1254.473877
4269.000527	0.089000	0.697615	1339.825073
4269.001428	0.088938	0.697615	1419.958252
4269.002327	0.088949	0.697615	1499.923340
4269.003213	0.088949	0.697615	1578.732178
4269.004153	0.088978	0.697615	1662.371704
4269.005071	0.088821	0.697615	1743.909180
4270.055939	0.885978	0.671084	429.699249
4270.056845	0.541963	0.671084	920.717590
4270.057736	0.094775	0.671084	1005.162476
4270.058660	0.088766	0.671084	1087.182129
4270.059599	0.088927	0.671084	1170.684570
4270.060514	0.088927	0.671084	1252.052734
4270.061409	0.088920	0.671084	1331.635864
4270.062360	0.088927	0.671084	1416.205444
4270.063291	0.088887	0.671084	1498.958984
4270.064188	0.088934	0.671084	1578.733032
4270.065103	0.088766	0.671084	1659.953857
4270.066031	0.088909	0.671084	1742.461182
4271.011543	0.869725	0.697385	393.115845
4271.012451	0.584114	0.697385	923.491150
4271.013392	0.095691	0.697385	1013.536316
4271.014296	0.088938	0.697385	1093.936279
4271.015193	0.088883	0.697385	1173.664429
4271.016082	0.088949	0.697385	1252.740112
4271.017026	0.088894	0.697385	1336.656128
4271.017922	0.088993	0.697385	1416.393799
4271.018827	0.088901	0.697385	1496.849487
4271.019726	0.088887	0.697385	1576.758667
4271.020672	0.088986	0.697385	1660.939087
4271.021580	0.088894	0.697385	1741.654907
4272.072431	0.870916	0.679608	408.459381
4272.073361	0.538638	0.679608	909.392456
4272.074259	0.094431	0.679608	994.191650
4272.075176	0.088887	0.679608	1075.700806
4272.076115	0.088927	0.679608	1159.203247
4272.077029	0.088967	0.679608	1240.519287
4272.077922	0.088993	0.679608	1319.989990
4272.078860	0.088894	0.679608	1403.372559
4272.079777	0.089004	0.679608	1484.989136
4272.080700	0.088975	0.679608	1567.112671
4272.081592	0.089008	0.679608	1646.507446
4272.082541	0.088861	0.679608	1730.836670
4273.029316	0.849650	0.690190	367.898285
4273.030272	0.567942	0.690190	910.850708
4273.031181	0.094647	0.690190	996.885010
4273.032079	0.088942	0.690190	1076.754639
4273.032971	0.089000	0.690190	1156.142822
4273.033910	0.088982	0.690190	1239.696899
4273.034815	0.088931	0.690190	1320.179199
4273.035714	0.088934	0.690190	1400.131104
4273.036605	0.089041	0.690190	1479.466187
4273.037548	0.088986	0.690190	1563.379639
4273.038457	0.088949	0.690190	1644.234253
4273.039349	0.088938	0.690190	1723.566895
4274.087378	0.858702	0.694412	376.111633
4274.088279	0.598411	0.694412	915.279663
4274.089225	0.095193	0.694412	1005.332153
4274.090148	0.088839	0.694412	1087.330688
4274.091041	0.088901	0.694412	1166.719604
4274.091958	0.088879	0.694412	1248.222046
4274.092876	0.088876	0.694412	1329.809937
4274.093801	0.088927	0.694412	1412.067383
4274.094695	0.088956	0.694412	1491.594360
4274.095630	0.088876	0.694412	1574.693115
4274.096567	0.088857	0.694412	1657.952515
4274.097473	0.088887	0.694412	1738.483887
4275.048650	0.852971	0.685018	373.601379
4275.049540	0.611598	0.685018	917.923523
4275.050493	0.094779	0.685018	1008.247986
4275.051405	0.088748	0.685018	1089.185791
4275.052295	0.088832	0.685018	1168.246094
4275.053216	0.088872	0.685018	1250.097290
4275.054131	0.088879	0.685018	1331.421875
4275.055039	0.088879	0.685018	1412.124390
4275.055930	0.088832	0.685018	1491.273560
4275.056870	0.088876	0.685018	1574.816772
4275.057777	0.088887	0.685018	1655.437012
4275.058676	0.088887	0.685018	1735.346191
4276.101615	0.873494	0.697949	415.782990
4276.102563	0.513977	0.697949	903.033203
4276.103489	0.093051	0.697949	989.197998
4276.104382	0.088722	0.697949	1068.426636
4276.105331	0.088762	0.697949	1152.661987
4276.106240	0.088835	0.697949	1233.413452
4276.107158	0.088894	0.697949	1315.018188
4276.108059	0.088810	0.697949	1395.035889
4276.109004	0.088839	0.697949	1478.988892
4276.109941	0.088806	0.697949	1562.200195
4276.110836	0.088813	0.697949	1641.688232
4276.111755	0.088817	0.697949	1723.311157
4277.067977	0.854191	0.679318	374.135498
4277.068871	0.608987	0.679318	918.569763
4277.069843	0.094076	0.679318	1010.011597
4277.070747	0.088802	0.679318	1090.289062
4277.071643	0.088894	0.679318	1169.938110
4277.072562	0.088942	0.679318	1251.675537
4277.073484	0.088945	0.679318	1333.683105
4277.074391	0.088806	0.679318	1414.230225
4277.075288	0.088828	0.679318	1493.909058
4277.076217	0.088912	0.679318	1576.508667
4277.077120	0.088824	0.679318	1656.717163
4277.078023	0.088813	0.679318	1736.915771
4278.114805	0.871333	0.708370	410.397858
4278.115745	0.519792	0.708370	899.002808
4278.116648	0.093717	0.708370	983.629272
4278.117572	0.088766	0.708370	1065.648926
4278.118500	0.088821	0.708370	1148.074585
4278.119425	0.088766	0.708370	1230.182983
4278.120322	0.088861	0.708370	1309.891357
4278.121242	0.088828	0.708370	1391.613281
4278.122174	0.088759	0.708370	1474.336182
4278.123108	0.088865	0.708370	1557.335815
4278.123997	0.088806	0.708370	1636.284424
4278.124922	0.088795	0.708370	1718.419922
4279.087822	0.853418	0.680800	373.797058
4279.088721	0.604109	0.680800	916.890930
4279.089686	0.094138	0.680800	1007.734253
4279.090592	0.088781	0.680800	1088.169434
4279.091490	0.088923	0.680800	1168.022583
4279.092418	0.088828	0.680800	1250.455078
4279.093320	0.088920	0.680800	1330.660645
4279.094223	0.088821	0.680800	1410.865845
4279.095114	0.088887	0.680800	1490.063965
4279.096042	0.088931	0.680800	1572.591675
4279.096951	0.088890	0.680800	1653.393066
4279.097852	0.088901	0.680800	1733.493164
4280.127468	0.890977	0.711935	420.540924
4280.128406	0.518342	0.711935	906.745972
4280.129336	0.093032	0.711935	993.265930
4280.130225	0.088770	0.711935	1072.182007
4280.131139	0.088795	0.711935	1153.340820
4280.132080	0.088781	0.711935	1236.883301
4280.132996	0.088872	0.711935	1318.290161
4280.133888	0.088868	0.711935	1397.560791
4280.134825	0.088773	0.711935	1480.741211
4280.135760	0.088817	0.711935	1563.785278
4280.136651	0.088905	0.711935	1642.999634
4280.137572	0.088872	0.711935	1724.850830
4281.109456	0.859288	0.675040	378.086853
4281.110379	0.588552	0.675040	921.320557
4281.111275	0.096237	0.675040	1007.548523
4281.112190	0.088898	0.675040	1088.889893
4281.113095	0.089066	0.675040	1169.494751
4281.114006	0.088905	0.675040	1250.487183
4281.114895	0.088898	0.675040	1329.517212
4281.115829	0.089052	0.675040	1412.691284
4281.116738	0.089000	0.675040	1493.592529
4281.117644	0.088923	0.675040	1574.157104
4281.118535	0.088890	0.675040	1653.358398
4281.119477	0.089033	0.675040	1737.227661
4282.139848	0.854125	0.707714	372.398376
4282.140784	0.585989	0.707714	920.883850
4282.141722	0.094731	0.707714	1009.741943
4282.142643	0.088883	0.707714	1091.603271
4282.143531	0.088934	0.707714	1170.576904
4282.144459	0.088894	0.707714	1253.070557
4282.145385	0.088953	0.707714	1335.440674
4282.146293	0.088982	0.707714	1416.236328
4282.147190	0.088887	0.707714	1495.967773
4282.148127	0.088938	0.707714	1579.302734
4282.149064	0.088942	0.707714	1662.641113
4282.149964	0.088956	0.707714	1742.701782
4283.131091	0.864261	0.674085	383.732086
4283.132036	0.576559	0.674085	928.580200
4283.132939	0.094845	0.674085	1014.225220
4283.133852	0.088832	0.674085	1095.328613
4283.134742	0.088901	0.674085	1174.450806
4283.135668	0.088982	0.674085	1256.848022
4283.136585	0.088986	0.674085	1338.447754
4283.137488	0.088916	0.674085	1418.738892
4283.138377	0.088945	0.674085	1497.811279
4283.139318	0.089000	0.674085	1581.560547
4283.140218	0.088949	0.674085	1661.614624
4283.141120	0.088934	0.674085	1741.833374
4284.153809	0.875570	0.713917	388.753113
4284.154793	0.495850	0.713917	876.669189
4284.155708	0.093080	0.713917	961.837219
4284.156597	0.088850	0.713917	1040.824951
4284.157525	0.088890	0.713917	1123.315186
4284.158460	0.088909	0.713917	1206.444824
4284.159377	0.088953	0.713917	1288.014404
4284.160264	0.088934	0.713917	1366.899170
4284.161209	0.088953	0.713917	1450.959473
4284.162137	0.088923	0.713917	1533.480347
4284.163041	0.088898	0.713917	1613.843872
4284.163973	0.088949	0.713917	1696.744263
4285.150687	0.872999	0.681090	398.960663
4285.151583	0.592006	0.681090	929.397705
4285.152515	0.095570	0.681090	1018.468994
4285.153435	0.088894	0.681090	1100.251465
4285.154337	0.088912	0.681090	1180.450439
4285.155228	0.089033	0.681090	1259.779053
4285.156156	0.088978	0.681090	1342.350830
4285.157068	0.088927	0.681090	1423.452271
4285.157960	0.089004	0.681090	1502.843750
4285.158871	0.088912	0.681090	1583.842896
4285.159795	0.089019	0.681090	1666.096069
4285.160701	0.088982	0.681090	1746.713745
4286.169304	0.863258	0.724004	384.149811
4286.170199	0.599106	0.724004	920.350098
4286.171158	0.095248	0.724004	1011.692749
4286.172081	0.088799	0.724004	1093.654053
4286.172968	0.088923	0.724004	1172.529053
4286.173885	0.088879	0.724004	1254.031494
4286.174809	0.088982	0.724004	1336.250854
4286.175746	0.088912	0.724004	1419.561768
4286.176644	0.088923	0.724004	1499.414917
4286.177563	0.088960	0.724004	1581.169067
4286.178514	0.088909	0.724004	1665.721191
4286.179439	0.088923	0.724004	1747.975220
4287.168455	0.852960	0.702457	372.743591
4287.169438	0.534049	0.702457	897.713806
4287.170331	0.094124	0.702457	981.766113
4287.171248	0.088890	0.702457	1063.278564
4287.172148	0.088967	0.702457	1143.349121
4287.173097	0.088975	0.702457	1227.786011
4287.174006	0.088997	0.702457	1308.683960
4287.174900	0.088978	0.702457	1388.230591
4287.175829	0.088978	0.702457	1470.891357
4287.176732	0.088975	0.702457	1551.235474
4287.177625	0.088894	0.702457	1630.617798
4287.178515	0.088960	0.702457	1709.792114
4288.186315	0.860585	0.723412	377.796661
4288.187208	0.597953	0.723412	911.768555
4288.188174	0.094636	0.723412	1003.187134
4288.189109	0.088909	0.723412	1086.316772
4288.190003	0.089019	0.723412	1165.899414
4288.190933	0.088792	0.723412	1248.475464
4288.191873	0.088879	0.723412	1332.022095
4288.192791	0.088993	0.723412	1413.717529
4288.193692	0.089015	0.723412	1493.919922
4288.194627	0.088982	0.723412	1577.118042
4288.195528	0.089019	0.723412	1657.323730
4288.196433	0.088986	0.723412	1737.855713
4289.183455	0.864562	0.729148	386.459106
4289.184365	0.589662	0.729148	923.051453
4289.185250	0.096581	0.729148	1008.525452
4289.186213	0.088821	0.729148	1094.059937
4289.187108	0.088971	0.729148	1173.688965
4289.188029	0.088971	0.729148	1255.631226
4289.188921	0.088997	0.729148	1335.016113
4289.189864	0.088916	0.729148	1418.863892
4289.190774	0.089000	0.729148	1499.854126
4289.191694	0.088960	0.729148	1581.697266
4289.192582	0.088912	0.729148	1660.651489
4289.193533	0.088872	0.729148	1745.168823
4290.205652	0.862518	0.726639	383.820648
4290.206555	0.598330	0.726639	924.112671
4290.207446	0.096914	0.726639	1010.463074
4290.208389	0.088967	0.726639	1094.359253
4290.209300	0.089044	0.726639	1175.478516
4290.210203	0.088956	0.726639	1255.806030
4290.211090	0.088960	0.726639	1334.713501
4290.212029	0.089019	0.726639	1418.301880
4290.212944	0.088964	0.726639	1499.703613
4290.213837	0.088986	0.726639	1579.167725
4290.214780	0.089055	0.726639	1663.146729
4290.215686	0.089084	0.726639	1743.857300
4291.196401	0.904973	0.743868	427.147339
4291.197343	0.508759	0.743868	906.397888
4291.198264	0.093168	0.743868	992.205383
4291.199155	0.088839	0.743868	1071.361084
4291.200100	0.088956	0.743868	1155.424805
4291.201025	0.088971	0.743868	1237.722900
4291.201913	0.089041	0.743868	1316.790894
4291.202839	0.088953	0.743868	1399.161011
4291.203779	0.088890	0.743868	1482.718018
4291.204695	0.088894	0.743868	1564.145020
4291.205592	0.088989	0.743868	1643.968384
4291.206507	0.088912	0.743868	1725.323242
4292.225759	0.877042	0.715661	396.423096
4292.226665	0.582660	0.715661	924.312988
4292.227553	0.096346	0.715661	1009.868652
4292.228504	0.088934	0.715661	1094.445190
4292.229409	0.088975	0.715661	1174.967163
4292.230305	0.088905	0.715661	1254.626099
4292.231240	0.088953	0.715661	1337.796875
4292.232141	0.089044	0.715661	1418.025635
4292.233045	0.088982	0.715661	1498.465332
4292.233935	0.089062	0.715661	1577.730957
4292.234860	0.089041	0.715661	1660.093506
4292.235773	0.089019	0.715661	1741.367432
4293.208519	0.854707	0.750591	370.942871
4293.209465	0.557640	0.750591	898.470642
4293.210415	0.093530	0.750591	987.324402
4293.211334	0.089000	0.750591	1069.115601
4293.212230	0.089022	0.750591	1148.879517
4293.213183	0.088978	0.750591	1233.675781
4293.214129	0.088971	0.750591	1317.842285
4293.215048	0.088975	0.750591	1399.609985
4293.215937	0.088945	0.750591	1478.682373
4293.216882	0.088916	0.750591	1562.708008
4293.217814	0.088978	0.750591	1645.635742
4293.218712	0.088942	0.750591	1725.505371
4294.246372	0.873735	0.692273	399.297028
4294.247267	0.588197	0.692273	925.733276
4294.248204	0.095812	0.692273	1015.508911
4294.249118	0.088909	0.692273	1096.771484
4294.250021	0.088989	0.692273	1177.128784
4294.250909	0.088971	0.692273	1256.135010
4294.251853	0.089037	0.692273	1340.185791
4294.252763	0.088901	0.692273	1421.086060
4294.253655	0.088949	0.692273	1500.428589
4294.254560	0.088949	0.692273	1580.927368
4294.255494	0.088971	0.692273	1664.026245
4294.256393	0.088960	0.692273	1744.001221
4296.266213	0.880840	0.678448	404.305481
4296.267111	0.581041	0.678448	926.080566
4296.268052	0.095387	0.678448	1015.839722
4296.268967	0.088916	0.678448	1097.197876
4296.269861	0.089004	0.678448	1176.767334
4296.270752	0.088909	0.678448	1255.984985
4296.271685	0.089008	0.678448	1339.029053
4296.272594	0.089015	0.678448	1419.943604
4296.273488	0.088982	0.678448	1499.493408
4296.274408	0.089008	0.678448	1581.380371
4296.275318	0.088989	0.678448	1662.360596
4296.276219	0.088982	0.678448	1742.533325
4298.285527	0.874113	0.676268	393.350647
4298.286438	0.576775	0.676268	918.792603
4298.287329	0.096042	0.676268	1004.366455
4298.288266	0.088901	0.676268	1087.666992
4298.289189	0.089015	0.676268	1169.827759
4298.290109	0.089033	0.676268	1251.738281
4298.291001	0.089004	0.676268	1331.129761
4298.291950	0.088982	0.676268	1415.573608
4298.292848	0.088934	0.676268	1495.436646
4298.293733	0.089004	0.676268	1574.205078
4298.294654	0.088953	0.676268	1656.130493
4298.295586	0.089022	0.676268	1739.099243
4299.251169	0.872856	0.740278	395.403961
4299.252070	0.586403	0.740278	923.752686
4299.253005	0.095640	0.740278	1013.175781
4299.253935	0.088923	0.740278	1095.874512
4299.254842	0.088975	0.740278	1176.574463
4299.255733	0.088905	0.740278	1255.788818
4299.256665	0.088945	0.740278	1338.685791
4299.257609	0.089015	0.740278	1422.715820
4299.258510	0.089019	0.740278	1502.921509
4299.259423	0.088989	0.740278	1584.168701
4299.260356	0.088960	0.740278	1667.168335
4299.261267	0.088942	0.740278	1748.194214
4300.303822	0.860713	0.662049	377.852966
4300.304806	0.521484	0.662049	890.993591
4300.305712	0.093783	0.662049	975.960937
4300.306634	0.088861	0.662049	1057.890869
4300.307525	0.088876	0.662049	1137.079102
4300.308459	0.088975	0.662049	1220.181396
4300.309362	0.088824	0.662049	1300.389893
4300.310250	0.088934	0.662049	1379.363525
4300.311180	0.088879	0.662049	1462.021362
4300.312100	0.088978	0.662049	1543.881348
4300.313000	0.088861	0.662049	1623.856323
4300.313889	0.088916	0.662049	1702.902710
4301.266933	0.885403	0.750724	412.597717
4301.267850	0.553367	0.750724	920.035034
4301.268740	0.095292	0.750724	1004.844666
4301.269670	0.088872	0.750724	1087.495728
4301.270608	0.088879	0.750724	1170.864624
4301.271513	0.088909	0.750724	1251.327026
4301.272407	0.088934	0.750724	1330.834351
4301.273348	0.088846	0.750724	1414.438843
4301.274286	0.088934	0.750724	1497.859253
4301.275186	0.088942	0.750724	1577.906738
4301.276107	0.088898	0.750724	1659.781494
4301.277047	0.088993	0.750724	1743.434814
4302.322662	0.876075	0.641593	408.251129
4302.323575	0.557915	0.641593	917.627563
4302.324521	0.094874	0.641593	1007.378601
4302.325433	0.088890	0.641593	1088.446655
4302.326353	0.088942	0.641593	1170.272949
4302.327243	0.088997	0.641593	1249.479858
4302.328189	0.089004	0.641593	1333.677490
4302.329098	0.088967	0.641593	1414.548706
4302.329997	0.088993	0.641593	1494.553345
4302.330909	0.089033	0.641593	1575.751587
4302.331847	0.088953	0.641593	1659.189209
4302.332750	0.088971	0.641593	1739.530029
4303.283681	0.866598	0.749431	389.102448
4303.284582	0.593961	0.749431	924.261475
4303.285472	0.096735	0.749431	1010.355286
4303.286449	0.088883	0.749431	1097.194092
4303.287380	0.088923	0.749431	1179.981689
4303.288280	0.088931	0.749431	1260.019287
4303.289187	0.088967	0.749431	1340.712646
4303.290123	0.088956	0.749431	1423.975708
4303.291064	0.088916	0.749431	1507.645630
4303.291961	0.089052	0.749431	1587.524902
4303.292878	0.089008	0.749431	1669.144897
4303.293815	0.088953	0.749431	1752.493530
4304.339911	0.852081	0.647978	369.803284
4304.340861	0.573721	0.647978	914.837952
4304.341767	0.094497	0.647978	1000.452271
4304.342682	0.088894	0.647978	1081.790283
4304.343576	0.088971	0.647978	1161.330322
4304.344493	0.088956	0.647978	1242.903198
4304.345428	0.088989	0.647978	1326.108154
4304.346353	0.088927	0.647978	1408.365601
4304.347243	0.088956	0.647978	1487.536743
4304.348203	0.088901	0.647978	1572.882080
4304.349108	0.088960	0.647978	1653.390869
4304.350029	0.088997	0.647978	1735.356689
4305.300463	0.877156	0.741878	409.631744
4305.301373	0.558047	0.741878	917.454407
4305.302304	0.095021	0.741878	1005.918701
4305.303247	0.088986	0.741878	1089.832153
4305.304165	0.089022	0.741878	1171.554565
4305.305054	0.088997	0.741878	1250.672485
4305.305990	0.088909	0.741878	1333.890991
4305.306910	0.088945	0.741878	1415.720703
4305.307823	0.088931	0.741878	1496.914429
4305.308717	0.088920	0.741878	1576.408569
4305.309658	0.088989	0.741878	1660.147461
4305.310590	0.088909	0.741878	1743.010376
4306.356206	0.896858	0.660957	422.420074
4306.357115	0.552502	0.660957	924.644775
4306.358070	0.093768	0.660957	1014.193481
4306.358973	0.088890	0.660957	1094.461548
4306.359862	0.088920	0.660957	1173.511108
4306.360802	0.089041	0.660957	1257.209229
4306.361706	0.088934	0.660957	1337.605835
4306.362619	0.089000	0.660957	1418.863037
4306.363520	0.089019	0.660957	1499.068726
4306.364447	0.088982	0.660957	1581.554932
4306.365357	0.088997	0.660957	1662.541870
4306.366272	0.088993	0.660957	1743.970337
4307.318733	0.873248	0.735992	385.975739
4307.319707	0.512446	0.735992	885.098389
4307.320630	0.093336	0.735992	971.247681
4307.321532	0.088949	0.735992	1051.479614
4307.322448	0.088916	0.735992	1132.926636
4307.323387	0.088967	0.735992	1216.466919
4307.324297	0.088989	0.735992	1297.447144
4307.325184	0.088945	0.735992	1376.341675
4307.326134	0.088967	0.735992	1460.860596
4307.327070	0.089022	0.735992	1544.185425
4307.327971	0.088978	0.735992	1624.354858
4307.328897	0.088964	0.735992	1706.735107
4308.372437	0.862094	0.664276	389.666260
4308.373329	0.598462	0.664276	923.494324
4308.374274	0.096116	0.664276	1014.323669
4308.375191	0.088890	0.664276	1095.836182
4308.376110	0.088887	0.664276	1177.523071
4308.377008	0.088978	0.664276	1257.425537
4308.377956	0.088916	0.664276	1341.717896
4308.378875	0.088975	0.664276	1423.485596
4308.379796	0.089019	0.664276	1505.471680
4308.380684	0.088949	0.664276	1584.458374
4308.381641	0.088934	0.664276	1669.568481
4308.382562	0.088942	0.664276	1751.483765
4309.336056	0.872190	0.736939	420.395538
4309.336990	0.515793	0.736939	902.146606
4309.337906	0.093658	0.736939	987.937744
4309.338801	0.088912	0.736939	1067.514282
4309.339745	0.089037	0.736939	1151.565063
4309.340654	0.088975	0.736939	1232.442993
4309.341550	0.088945	0.736939	1312.137939
4309.342439	0.088964	0.736939	1391.226562
4309.343381	0.089055	0.736939	1475.116577
4309.344289	0.089004	0.736939	1555.932129
4309.345195	0.089026	0.736939	1636.589600
4309.346124	0.088993	0.736939	1719.264038
4310.389202	0.857172	0.662580	375.441193
4310.390098	0.607207	0.662580	919.498657
4310.391043	0.094907	0.662580	1009.185974
4310.391961	0.088945	0.662580	1090.837769
4310.392877	0.089030	0.662580	1172.388794
4310.393763	0.088916	0.662580	1251.168335
4310.394718	0.088835	0.662580	1336.006226
4310.395637	0.088916	0.662580	1417.720093
4310.396525	0.088960	0.662580	1496.716553
4310.397471	0.088931	0.662580	1580.844971
4310.398377	0.088883	0.662580	1661.373047
4310.399288	0.088898	0.662580	1742.358887
4311.354332	0.878221	0.738155	396.956085
4311.355239	0.576105	0.738155	919.483154
4311.356180	0.094362	0.738155	1008.277405
4311.357086	0.089019	0.738155	1088.928223
4311.357987	0.089000	0.738155	1169.117432
4311.358876	0.088960	0.738155	1248.202881
4311.359827	0.089033	0.738155	1332.873413
4311.360732	0.088975	0.738155	1413.395386
4311.361626	0.089062	0.738155	1493.017212
4311.362563	0.089019	0.738155	1576.427612
4311.363469	0.089033	0.738155	1657.091675
4311.364363	0.088978	0.738155	1736.638306
4312.404962	0.868502	0.656074	400.379517
4312.405873	0.568905	0.656074	918.652039
4312.406764	0.095867	0.656074	1004.069275
4312.407716	0.088883	0.656074	1088.685913
4312.408640	0.088942	0.656074	1170.868042
4312.409553	0.088938	0.656074	1252.068481
4312.410448	0.088975	0.656074	1331.700806
4312.411399	0.088901	0.656074	1416.245972
4312.412326	0.088949	0.656074	1498.701660
4312.413242	0.089022	0.656074	1580.245972
4312.414151	0.088989	0.656074	1661.137207
4312.415084	0.089000	0.656074	1744.174438
4313.373145	0.871216	0.725990	386.819824
4313.374068	0.572915	0.725990	915.620361
4313.374968	0.095654	0.725990	1001.709229
4313.375900	0.089125	0.725990	1084.773437
4313.376805	0.089172	0.725990	1165.474365
4313.377713	0.089099	0.725990	1246.376343
4313.378600	0.088989	0.725990	1325.309814
4313.379549	0.089158	0.725990	1409.920532
4313.380458	0.089110	0.725990	1490.921631
4313.381354	0.089088	0.725990	1570.744629
4313.382279	0.089117	0.725990	1653.178223
4313.383193	0.089147	0.725990	1734.658325
4314.420171	0.857483	0.654222	375.577515
4314.421142	0.534441	0.654222	894.519653
4314.422069	0.093622	0.654222	981.307068
4314.422961	0.088986	0.654222	1060.682251
4314.423881	0.089084	0.654222	1142.640015
4314.424824	0.089095	0.654222	1226.656982
4314.425738	0.089059	0.654222	1308.056763
4314.426636	0.089095	0.654222	1388.064453
4314.427575	0.089077	0.654222	1471.707886
4314.428508	0.089110	0.654222	1554.847656
4314.429424	0.089041	0.654222	1636.408813
4314.430317	0.089073	0.654222	1715.951416
4315.392515	0.914132	0.713849	447.010590
4315.393439	0.513918	0.713849	921.871216
4315.394345	0.093864	0.713849	1006.911560
4315.395232	0.088938	0.713849	1085.799561
4315.396179	0.089037	0.713849	1170.117432
4315.397089	0.089004	0.713849	1251.110962
4315.397977	0.088975	0.713849	1330.120361
4315.398910	0.089000	0.713849	1413.157593
4315.399819	0.089048	0.713849	1494.102051
4315.400720	0.088949	0.713849	1574.245117
4315.401611	0.088989	0.713849	1653.534546
4315.402554	0.089088	0.713849	1737.544678
4316.434427	0.910129	0.660377	434.131744
4316.435370	0.501958	0.660377	907.478149
4316.436289	0.093105	0.660377	993.042053
4316.437179	0.088901	0.660377	1072.164307
4316.438130	0.089022	0.660377	1156.824463
4316.439070	0.088949	0.660377	1240.436523
4316.439977	0.088978	0.660377	1321.139771
4316.440899	0.088898	0.660377	1403.103516
4316.441835	0.088960	0.660377	1486.369995
4316.442749	0.088945	0.660377	1567.666016
4316.443635	0.088967	0.660377	1646.490967
4316.444576	0.089059	0.660377	1730.295288
4317.412834	0.874222	0.708132	396.896973
4317.413746	0.577324	0.708132	923.416626
4317.414644	0.095830	0.708132	1009.472046
4317.415575	0.088945	0.708132	1092.280151
4317.416485	0.088978	0.708132	1173.250366
4317.417392	0.088923	0.708132	1253.903809
4317.418283	0.088960	0.708132	1333.167114
4317.419232	0.089004	0.708132	1417.631836
4317.420134	0.089011	0.708132	1497.919922
4317.421027	0.088978	0.708132	1577.377563
4317.421962	0.088967	0.708132	1660.562012
4317.422867	0.089044	0.708132	1741.146973
4318.448095	0.868890	0.668852	391.000671
4318.449005	0.578690	0.668852	917.608704
4318.449894	0.096259	0.668852	1003.182556
4318.450839	0.088876	0.668852	1087.170166
4318.451768	0.088901	0.668852	1169.759521
4318.452682	0.089008	0.668852	1251.112427
4318.453570	0.088978	0.668852	1330.125122
4318.454519	0.088949	0.668852	1414.537720
4318.455458	0.088989	0.668852	1498.098633
4318.456351	0.088920	0.668852	1577.503906
4318.457265	0.088934	0.668852	1658.789917
4318.458204	0.088934	0.668852	1742.299194
4319.433169	0.864382	0.716145	385.514526
4319.434070	0.599041	0.716145	925.250000
4319.434986	0.096801	0.716145	1013.919312
4319.435903	0.088942	0.716145	1095.478760
4319.436815	0.088960	0.716145	1176.610229
4319.437709	0.089048	0.716145	1256.218994
4319.438649	0.089015	0.716145	1339.892944
4319.439546	0.089004	0.716145	1419.729492
4319.440447	0.088978	0.716145	1499.898926
4319.441336	0.088883	0.716145	1578.916016
4319.442282	0.089052	0.716145	1663.158691
4319.443189	0.089033	0.716145	1743.911865
4320.460276	0.883495	0.687515	423.194061
4320.461232	0.501237	0.687515	902.376282
4320.462164	0.092823	0.687515	988.887756
4320.463054	0.088850	0.687515	1067.964355
4320.463989	0.088923	0.687515	1151.107666
4320.464921	0.088993	0.687515	1234.049072
4320.465822	0.089026	0.687515	1314.261353
4320.466744	0.088898	0.687515	1396.225098
4320.467676	0.088971	0.687515	1479.145996
4320.468592	0.088934	0.687515	1560.609863
4320.469490	0.088971	0.687515	1640.505737
4320.470423	0.088931	0.687515	1723.478027
4321.451525	0.875837	0.715621	432.663696
4321.452455	0.517247	0.715621	913.703735
4321.453349	0.093896	0.715621	997.647217
4321.454238	0.088894	0.715621	1076.674072
4321.455167	0.088982	0.715621	1159.338257
4321.456073	0.089011	0.715621	1239.982422
4321.456969	0.088993	0.715621	1319.720093
4321.457857	0.089000	0.715621	1398.752319
4321.458805	0.089044	0.715621	1483.166260
4321.459717	0.089070	0.715621	1564.397949
4321.460608	0.089000	0.715621	1643.697144
4321.461534	0.089041	0.715621	1726.148682
4322.474451	0.862456	0.703395	383.792969
4322.475352	0.597927	0.703395	922.525452
4322.476299	0.095933	0.703395	1013.373657
4322.477209	0.088883	0.703395	1094.257202
4322.478127	0.088876	0.703395	1175.845093
4322.479012	0.088861	0.703395	1254.487183
4322.479968	0.088997	0.703395	1339.567871
4322.480888	0.088942	0.703395	1421.394165
4322.481774	0.088949	0.703395	1500.203003
4322.482679	0.088909	0.703395	1580.665405
4322.483616	0.088945	0.703395	1664.007202
4322.484540	0.088890	0.703395	1746.141968
4323.470280	0.855073	0.712886	373.666992
4323.471264	0.540839	0.712886	905.852173
4323.472176	0.093523	0.712886	991.145081
4323.473072	0.088923	0.712886	1070.820435
4323.473994	0.088978	0.712886	1152.858398
4323.474938	0.088927	0.712886	1236.805542
4323.475853	0.088982	0.712886	1318.223999
4323.476752	0.089041	0.712886	1398.271484
4323.477694	0.088949	0.712886	1482.061401
4323.478626	0.088982	0.712886	1564.992554
4323.479538	0.088978	0.712886	1646.140747
4323.480427	0.088967	0.712886	1725.232666
4324.489701	0.875998	0.726723	399.455322
4324.490599	0.585868	0.726723	925.564758
4324.491489	0.096504	0.726723	1011.453247
4324.492439	0.088883	0.726723	1095.892090
4324.493348	0.088894	0.726723	1176.696777
4324.494274	0.088872	0.726723	1258.992310
4324.495163	0.088942	0.726723	1338.061401
4324.496120	0.088916	0.726723	1423.154053
4324.497021	0.088832	0.726723	1503.191528
4324.497912	0.088883	0.726723	1582.386353
4324.498856	0.088982	0.726723	1666.385254
4324.499770	0.088883	0.726723	1747.624390
4325.489118	0.867100	0.714066	391.061920
4325.490014	0.590555	0.714066	920.199585
4325.490983	0.094669	0.714066	1011.934021
4325.491895	0.088894	0.714066	1093.005371
4325.492792	0.088978	0.714066	1172.818848
4325.493717	0.088912	0.714066	1255.062744
4325.494653	0.088920	0.714066	1338.291504
4325.495568	0.088927	0.714066	1419.659668
4325.496463	0.088945	0.714066	1499.265747
4325.497413	0.088942	0.714066	1583.760254
4325.498352	0.089000	0.714066	1667.331543
4325.499252	0.088997	0.714066	1747.428467
4326.507484	0.869114	0.730449	394.577637
4326.508385	0.596616	0.730449	932.128845
4326.509325	0.094786	0.730449	1021.228027
4326.510229	0.088942	0.730449	1101.631226
4326.511147	0.088956	0.730449	1183.293091
4326.512040	0.089022	0.730449	1262.789917
4326.512995	0.088953	0.730449	1347.739746
4326.513916	0.088953	0.730449	1429.665161
4326.514808	0.088975	0.730449	1509.030518
4326.515739	0.088982	0.730449	1591.872681
4326.516656	0.088945	0.730449	1673.435547
4326.517580	0.088949	0.730449	1755.624390
4327.505893	0.878855	0.698565	403.394440
4327.506792	0.586864	0.698565	930.985229
4327.507741	0.095786	0.698565	1021.886292
4327.508639	0.088945	0.698565	1101.759155
4327.509540	0.088953	0.698565	1181.905518
4327.510432	0.088890	0.698565	1261.195801
4327.511380	0.089015	0.698565	1345.581909
4327.512288	0.088967	0.698565	1426.364258
4327.513192	0.088989	0.698565	1506.810547
4327.514078	0.088953	0.698565	1585.622559
4327.515011	0.089037	0.698565	1668.693970
4327.515922	0.088843	0.698565	1749.629761
4328.524742	0.848884	0.720745	366.718018
4328.525710	0.554696	0.720745	903.663757
4328.526627	0.093918	0.720745	989.786987
4328.527552	0.088894	0.720745	1072.013916
4328.528442	0.088960	0.720745	1151.188232
4328.529396	0.088898	0.720745	1235.996582
4328.530313	0.088912	0.720745	1317.529175
4328.531206	0.088982	0.720745	1396.989990
4328.532125	0.088916	0.720745	1478.703857
4328.533035	0.088916	0.720745	1559.617432
4328.533950	0.088967	0.720745	1641.022461
4328.534842	0.088938	0.720745	1720.355103
4329.521628	0.873622	0.682577	394.003448
4329.522562	0.560713	0.682577	917.709229
4329.523453	0.095090	0.682577	1002.434692
4329.524388	0.088894	0.682577	1085.550659
4329.525300	0.088934	0.682577	1166.658813
4329.526200	0.088931	0.682577	1246.696411
4329.527089	0.089011	0.682577	1325.827393
4329.528044	0.088993	0.682577	1410.815674
4329.528949	0.088938	0.682577	1491.304565
4329.529841	0.089070	0.682577	1570.754883
4329.530789	0.088945	0.682577	1655.075073
4329.531695	0.089015	0.682577	1735.722534
4330.544588	0.854799	0.718356	372.692169
4330.545484	0.602380	0.718356	912.424927
4330.546453	0.094471	0.718356	1003.967773
4330.547369	0.088810	0.718356	1085.317627
4330.548259	0.088942	0.718356	1164.475708
4330.549195	0.088835	0.718356	1247.625732
4330.550135	0.088909	0.718356	1331.199951
4330.551046	0.088949	0.718356	1412.232422
4330.551938	0.088912	0.718356	1491.542236
4330.552870	0.088953	0.718356	1574.446045
4330.553794	0.088953	0.718356	1656.638306
4330.554716	0.088953	0.718356	1738.652588
4331.535833	0.854176	0.689320	374.983246
4331.536726	0.613715	0.689320	923.030396
4331.537679	0.095057	0.689320	1013.620056
4331.538587	0.088964	0.689320	1094.399048
4331.539478	0.089026	0.689320	1173.721069
4331.540380	0.088975	0.689320	1253.976196
4331.541312	0.088964	0.689320	1336.890259
4331.542223	0.088931	0.689320	1417.906128
4331.543122	0.088989	0.689320	1497.907471
4331.544012	0.088927	0.689320	1577.052490
4331.544964	0.089004	0.689320	1661.784180
4331.545877	0.088876	0.689320	1742.927734
4332.564933	0.849968	0.711347	368.036255
4332.565889	0.560749	0.711347	904.112732
4332.566821	0.094109	0.711347	991.822205
4332.567741	0.088901	0.711347	1073.611450
4332.568633	0.088920	0.711347	1152.927856
4332.569585	0.088857	0.711347	1237.520142
4332.570516	0.088912	0.711347	1320.297485
4332.571430	0.088953	0.711347	1401.600220
4332.572319	0.088861	0.711347	1480.597778
4332.573267	0.088909	0.711347	1564.883179
4332.574206	0.088905	0.711347	1648.364990
4332.575108	0.088931	0.711347	1728.580444
4333.549512	0.853004	0.694718	370.203796
4333.550463	0.566195	0.694718	908.655334
4333.551373	0.094915	0.694718	995.027588
4333.552269	0.088861	0.694718	1074.647095
4333.553161	0.088942	0.694718	1153.983032
4333.554097	0.089037	0.694718	1237.321533
4333.555001	0.089015	0.694718	1317.791016
4333.555907	0.088975	0.694718	1398.401978
4333.556793	0.089044	0.694718	1477.295166
4333.557726	0.089070	0.694718	1560.397339
4333.558650	0.088931	0.694718	1642.569336
4333.559557	0.088923	0.694718	1723.222778
4334.584783	0.857230	0.703403	373.752350
4334.585723	0.582931	0.703403	921.707397
4334.586657	0.094380	0.703403	1009.858215
4334.587571	0.088879	0.703403	1091.093994
4334.588473	0.088949	0.703403	1171.325928
4334.589411	0.088964	0.703403	1254.773804
4334.590350	0.088971	0.703403	1338.317505
4334.591253	0.088978	0.703403	1418.664917
4334.592162	0.088971	0.703403	1499.539551
4334.593089	0.089008	0.703403	1582.049561
4334.594026	0.088967	0.703403	1665.411865
4334.594917	0.088920	0.703403	1744.639282
4335.561188	0.876116	0.712834	394.252075
4335.562090	0.592808	0.712834	928.964600
4335.562983	0.096519	0.712834	1015.155640
4335.563927	0.088964	0.712834	1099.137329
4335.564823	0.089015	0.712834	1178.894653
4335.565725	0.088953	0.712834	1259.129883
4335.566617	0.088986	0.712834	1338.505005
4335.567550	0.089084	0.712834	1421.620850
4335.568467	0.088960	0.712834	1503.197144
4335.569366	0.088931	0.712834	1583.145752
4335.570254	0.089059	0.712834	1662.229980
4335.571202	0.088964	0.712834	1746.567505
4336.604630	0.871062	0.684708	392.848969
4336.605526	0.583217	0.684708	915.411011
4336.606492	0.094468	0.684708	1006.666870
4336.607433	0.088894	0.684708	1090.316162
4336.608327	0.089008	0.684708	1169.888916
4336.609254	0.088942	0.684708	1252.337769
4336.610190	0.088993	0.684708	1335.635132
4336.611109	0.088986	0.684708	1417.412842
4336.612004	0.088953	0.684708	1497.025391
4336.612954	0.088931	0.684708	1581.509521
4336.613885	0.088942	0.684708	1664.314209
4336.614782	0.088949	0.684708	1744.101440
4337.575894	0.866949	0.726433	387.526398
4337.576794	0.601322	0.726433	928.716187
4337.577743	0.095508	0.726433	1019.353088
4337.578647	0.088887	0.726433	1099.706665
4337.579573	0.088986	0.726433	1182.107300
4337.580462	0.089000	0.726433	1261.228516
4337.581398	0.088953	0.726433	1344.488159
4337.582306	0.088964	0.726433	1425.267090
4337.583199	0.088960	0.726433	1504.708374
4337.584136	0.088997	0.726433	1588.098145
4337.585053	0.088879	0.726433	1669.600586
4337.585956	0.088953	0.726433	1749.924805
4338.622970	0.884952	0.681920	423.892181
4338.623902	0.520748	0.681920	909.229553
4338.624802	0.093838	0.681920	993.683655
4338.625719	0.088744	0.681920	1075.061768
4338.626663	0.088843	0.681920	1158.929321
4338.627575	0.088839	0.681920	1239.950562
4338.628461	0.088868	0.681920	1318.687988
4338.629412	0.088802	0.681920	1403.139160
4338.630343	0.088770	0.681920	1485.783569
4338.631247	0.088733	0.681920	1565.998169
4338.632141	0.088784	0.681920	1645.371216
4338.633078	0.088901	0.681920	1728.671753
4339.590090	0.859567	0.730477	377.349762
4339.591071	0.506986	0.730477	874.703125
4339.591990	0.093281	0.730477	960.428589
4339.592879	0.088759	0.730477	1039.334961
4339.593782	0.088905	0.730477	1119.616211
4339.594731	0.088949	0.730477	1204.028809
4339.595631	0.088861	0.730477	1284.003784
4339.596522	0.088909	0.730477	1363.221436
4339.597463	0.088931	0.730477	1446.905151
4339.598361	0.088850	0.730477	1526.692505
4339.599269	0.088934	0.730477	1607.444824
4339.600164	0.088835	0.730477	1686.952515
4340.641238	0.863350	0.693091	385.053925
4340.642141	0.601868	0.693091	928.540405
4340.643084	0.096449	0.693091	1019.491760
4340.643988	0.088843	0.693091	1099.805664
4340.644883	0.088835	0.693091	1179.313354
4340.645781	0.088868	0.693091	1259.117187
4340.646728	0.088868	0.693091	1343.275513
4340.647630	0.088872	0.693091	1423.438110
4340.648530	0.088839	0.693091	1503.393311
4340.649423	0.088898	0.693091	1582.778931
4340.650370	0.088931	0.693091	1666.996216
4340.651285	0.088733	0.693091	1748.186768
4341.606364	0.869802	0.738272	387.931793
4341.607255	0.592167	0.738272	915.552368
4341.608197	0.094918	0.738272	1004.965332
4341.609119	0.088781	0.738272	1086.820923
4341.610006	0.088890	0.738272	1165.666748
4341.610943	0.088883	0.738272	1248.950195
4341.611853	0.088890	0.738272	1329.840454
4341.612770	0.088850	0.738272	1411.316040
4341.613672	0.088934	0.738272	1491.534790
4341.614607	0.088949	0.738272	1574.702026
4341.615516	0.088890	0.738272	1655.503418
4341.616431	0.088905	0.738272	1736.851562
4342.657488	0.862255	0.698211	381.978790
4342.658389	0.599315	0.698211	921.961792
4342.659312	0.096694	0.698211	1011.210693
4342.660233	0.088901	0.698211	1093.088867
4342.661136	0.088953	0.698211	1173.413086
4342.662033	0.088945	0.698211	1253.197021
4342.662972	0.088901	0.698211	1336.675415
4342.663875	0.088846	0.698211	1416.903687
4342.664770	0.088781	0.698211	1496.362305
4342.665656	0.088934	0.698211	1575.158081
4342.666591	0.088938	0.698211	1658.315063
4342.667495	0.088810	0.698211	1738.599121
4343.623118	0.857179	0.739006	377.158722
4343.624013	0.608236	0.739006	921.530029
4343.624979	0.095468	0.739006	1013.751648
4343.625910	0.088792	0.739006	1096.416504
4343.626816	0.088894	0.739006	1176.954468
4343.627729	0.088835	0.739006	1258.061279
4343.628657	0.088839	0.739006	1340.504028
4343.629593	0.088846	0.739006	1423.664307
4343.630491	0.088887	0.739006	1503.484619
4343.631409	0.088846	0.739006	1585.045654
4343.632345	0.088861	0.739006	1668.219604
4343.633255	0.088916	0.739006	1749.133179
4344.674265	0.873776	0.698871	391.451508
4344.675175	0.582195	0.698871	921.248779
4344.676062	0.096255	0.698871	1006.626831
4344.677032	0.088810	0.698871	1092.772339
4344.677939	0.088912	0.698871	1173.415894
4344.678828	0.088879	0.698871	1252.429687
4344.679770	0.088898	0.698871	1336.171387
4344.680673	0.088850	0.698871	1416.403076
4344.681570	0.088887	0.698871	1496.134521
4344.682457	0.088894	0.698871	1574.983521
4344.683390	0.088997	0.698871	1658.017334
4344.684299	0.088887	0.698871	1738.815430
4345.640905	0.867133	0.734743	379.804047
4345.641889	0.508861	0.734743	880.523437
4345.642804	0.093296	0.734743	965.889160
4345.643692	0.088813	0.734743	1044.755493
4345.644618	0.088876	0.734743	1127.054443
4345.645549	0.088931	0.734743	1209.848877
4345.646471	0.088832	0.734743	1291.751831
4345.647373	0.088879	0.734743	1371.921021
4345.648294	0.088861	0.734743	1453.762085
4345.649232	0.088912	0.734743	1537.161865
4345.650153	0.088923	0.734743	1619.060303
4345.651046	0.088876	0.734743	1698.426270
4346.690049	0.907072	0.709889	450.814545
4346.690975	0.510183	0.709889	923.244080
4346.691885	0.093384	0.709889	1008.223328
4346.692785	0.088824	0.709889	1088.165283
4346.693750	0.088887	0.709889	1173.940918
4346.694662	0.088909	0.709889	1255.025635
4346.695553	0.088850	0.709889	1334.191040
4346.696476	0.088945	0.709889	1416.287598
4346.697399	0.088857	0.709889	1498.302979
4346.698292	0.088876	0.709889	1577.668945
4346.699180	0.088898	0.709889	1656.610107
4346.700115	0.088909	0.709889	1739.739746
4347.658226	0.898169	0.728379	430.222931
4347.659179	0.500259	0.728379	906.969604
4347.660093	0.092985	0.728379	991.957520
4347.660988	0.088813	0.728379	1071.445557
4347.661937	0.088799	0.728379	1155.715698
4347.662874	0.088920	0.728379	1239.033447
4347.663774	0.088843	0.728379	1318.991943
4347.664691	0.088839	0.728379	1400.457397
4347.665628	0.088857	0.728379	1483.716797
4347.666562	0.088824	0.728379	1566.678833
4347.667461	0.088923	0.728379	1646.620850
4347.668381	0.088901	0.728379	1728.410156
4348.704748	0.887787	0.723650	420.810974
4348.705660	0.551942	0.723650	924.182251
4348.706548	0.095145	0.723650	1008.671265
4348.707501	0.088729	0.723650	1093.230225
4348.708415	0.088751	0.723650	1174.348877
4348.709305	0.088813	0.723650	1253.392822
4348.710236	0.088792	0.723650	1336.057739
4348.711147	0.088795	0.723650	1416.950195
4348.712071	0.088835	0.723650	1499.034180
4348.712954	0.088850	0.723650	1577.488770
4348.713898	0.088835	0.723650	1661.349487
4348.714801	0.088806	0.723650	1741.541504
4349.677527	0.865236	0.722860	383.299377
4349.678423	0.590072	0.722860	912.003845
4349.679384	0.094585	0.722860	1002.899963
4349.680297	0.088828	0.722860	1084.000000
4349.681191	0.088865	0.722860	1163.445068
4349.682120	0.088945	0.722860	1246.075195
4349.683028	0.088894	0.722860	1326.791016
4349.683929	0.088890	0.722860	1406.881226
4349.684823	0.088843	0.722860	1486.306641
4349.685763	0.088967	0.722860	1569.935913
4349.686671	0.088872	0.722860	1650.631714
4349.687579	0.088945	0.722860	1731.394043
4350.718947	0.864642	0.728637	391.682983
4350.719850	0.591456	0.728637	925.768005
4350.720791	0.096229	0.728637	1016.319702
4350.721718	0.088748	0.728637	1098.588623
4350.722634	0.088850	0.728637	1179.975342
4350.723533	0.088850	0.728637	1259.851562
4350.724464	0.088828	0.728637	1342.550537
4350.725394	0.088865	0.728637	1425.194702
4350.726316	0.088938	0.728637	1507.195557
4350.727204	0.088839	0.728637	1586.084717
4350.728159	0.088883	0.728637	1670.968018
4350.729092	0.088931	0.728637	1753.940308
4351.696864	0.876500	0.715649	395.301605
4351.697768	0.581206	0.715649	920.711792
4351.698659	0.096178	0.715649	1006.406372
4351.699602	0.088839	0.715649	1090.181641
4351.700510	0.088813	0.715649	1170.824219
4351.701433	0.088912	0.715649	1252.890381
4351.702322	0.088876	0.715649	1331.900879
4351.703267	0.088872	0.715649	1415.885010
4351.704162	0.088824	0.715649	1495.382935
4351.705052	0.088912	0.715649	1574.514893
4351.705972	0.088835	0.715649	1656.243530
4351.706891	0.088905	0.715649	1737.947266
4352.733129	0.854333	0.721237	372.489380
4352.734026	0.610400	0.721237	920.018494
4352.735002	0.094841	0.721237	1012.583618
4352.735938	0.089015	0.721237	1095.901611
4352.736833	0.089059	0.721237	1175.609253
4352.737749	0.089070	0.721237	1257.197266
4352.738690	0.088905	0.721237	1340.856934
4352.739607	0.089000	0.721237	1422.470215
4352.740495	0.089037	0.721237	1501.534912
4352.741428	0.088993	0.721237	1584.565308
4352.742357	0.088975	0.721237	1667.222656
4352.743289	0.089037	0.721237	1750.204956
4353.716717	0.887435	0.722973	409.995117
4353.717618	0.567561	0.722973	921.367615
4353.718535	0.094991	0.722973	1008.474792
4353.719436	0.088989	0.722973	1088.654053
4353.720392	0.089052	0.722973	1173.787354
4353.721310	0.089073	0.722973	1255.556763
4353.722206	0.089084	0.722973	1335.376465
4353.723147	0.089059	0.722973	1419.180786
4353.724066	0.089055	0.722973	1501.022461
4353.724992	0.089070	0.722973	1583.501099
4353.725882	0.089088	0.722973	1662.789551
4353.726837	0.089008	0.722973	1747.791748
4354.746827	0.858131	0.712515	377.577698
4354.747718	0.612894	0.712515	923.666504
4354.748704	0.093779	0.712515	1016.132874
4354.749620	0.088894	0.712515	1097.559814
4354.750519	0.088857	0.712515	1177.442627
4354.751435	0.089008	0.712515	1258.973511
4354.752351	0.089019	0.712515	1340.514526
4354.753255	0.088993	0.712515	1420.964111
4354.754147	0.089041	0.712515	1500.388306
4354.755073	0.088989	0.712515	1582.792358
4354.755975	0.088960	0.712515	1663.034180
4354.756880	0.088953	0.712515	1743.536377
4355.737084	0.881257	0.706714	420.359772
4355.738030	0.503936	0.706714	897.082764
4355.738930	0.093461	0.706714	981.197388
4355.739851	0.088817	0.706714	1062.997925
4355.740787	0.088861	0.706714	1146.171875
4355.741701	0.088883	0.706714	1227.411011
4355.742588	0.088890	0.706714	1306.256836
4355.743525	0.088901	0.706714	1389.557373
4355.744448	0.088953	0.706714	1471.660645
4355.745371	0.088872	0.706714	1553.689575
4355.746257	0.088989	0.706714	1632.534058
4355.747212	0.089008	0.706714	1717.536255
4356.761036	0.866272	0.719452	380.293396
4356.762011	0.522832	0.719452	890.054565
4356.762928	0.093827	0.719452	976.093811
4356.763820	0.088964	0.719452	1055.449341
4356.764752	0.089041	0.719452	1138.435059
4356.765658	0.088967	0.719452	1219.039429
4356.766555	0.088923	0.719452	1298.803711
4356.767446	0.088964	0.719452	1378.070312
4356.768387	0.089037	0.719452	1461.854004
4356.769288	0.089066	0.719452	1542.102661
4356.770200	0.089037	0.719452	1623.304321
4356.771095	0.088964	0.719452	1702.926758
4357.757427	0.899626	0.712894	422.824432
4357.758332	0.562599	0.712894	931.976440
4357.759240	0.095453	0.712894	1018.647644
4357.760190	0.088799	0.712894	1103.006592
4357.761107	0.088927	0.712894	1184.552612
4357.761997	0.088975	0.712894	1263.739990
4357.762925	0.088938	0.712894	1346.274414
4357.763854	0.088876	0.712894	1428.839966
4357.764771	0.089011	0.712894	1510.463257
4357.765663	0.088912	0.712894	1589.773071
4357.766618	0.088905	0.712894	1674.677368
4357.767539	0.088883	0.712894	1756.538696
4358.775768	0.870059	0.727597	388.046143
4358.776680	0.589706	0.727597	925.857849
4358.777566	0.096504	0.727597	1011.360291
4358.778509	0.088956	0.727597	1095.246094
4358.779420	0.089015	0.727597	1176.338623
4358.780315	0.088993	0.727597	1255.987305
4358.781241	0.089000	0.727597	1338.401489
4358.782149	0.089030	0.727597	1419.240356
4358.783049	0.088971	0.727597	1499.314209
4358.783939	0.088931	0.727597	1578.462524
4358.784891	0.089022	0.727597	1663.211670
4358.785795	0.088975	0.727597	1743.644775
4359.775688	0.860175	0.711955	377.616638
4359.776662	0.531171	0.711955	894.976868
4359.777607	0.093105	0.711955	982.961548
4359.778508	0.088890	0.711955	1063.051758
4359.779427	0.089015	0.711955	1144.856445
4359.780368	0.088931	0.711955	1228.540161
4359.781286	0.088934	0.711955	1310.181885
4359.782173	0.088956	0.711955	1389.086182
4359.783112	0.088927	0.711955	1472.588623
4359.784045	0.088905	0.711955	1555.536987
4359.784965	0.088883	0.711955	1637.309448
4359.785853	0.088989	0.711955	1716.331909
4360.792551	0.883187	0.736613	408.915710
4360.793450	0.576423	0.736613	927.120300
4360.794403	0.095581	0.736613	1018.209045
4360.795296	0.088997	0.736613	1097.682983
4360.796198	0.088945	0.736613	1177.911621
4360.797087	0.088916	0.736613	1256.958008
4360.798026	0.089019	0.736613	1340.546387
4360.798930	0.088986	0.736613	1420.989380
4360.799836	0.088960	0.736613	1501.587158
4360.800731	0.088898	0.736613	1581.150635
4360.801677	0.089066	0.736613	1665.407227
4360.802590	0.088920	0.736613	1746.590942
4361.791952	0.871707	0.741338	386.165985
4361.792925	0.523744	0.741338	895.768799
4361.793847	0.093431	0.741338	981.912537
4361.794737	0.088934	0.741338	1061.064087
4361.795677	0.088986	0.741338	1144.710571
4361.796594	0.088964	0.741338	1226.290161
4361.797513	0.088982	0.741338	1308.064575
4361.798411	0.088986	0.741338	1387.973633
4361.799347	0.088894	0.741338	1471.178467
4361.800278	0.088912	0.741338	1553.955811
4361.801175	0.088964	0.741338	1633.756226
4361.802099	0.089026	0.741338	1716.016113
4362.809297	0.855634	0.751743	374.767487
4362.810190	0.612693	0.751743	921.902222
4362.811141	0.094819	0.751743	1012.075378
4362.812052	0.088890	0.751743	1093.054565
4362.812957	0.088953	0.751743	1173.556641
4362.813848	0.088997	0.751743	1252.852539
4362.814801	0.088953	0.751743	1337.624390
4362.815713	0.088975	0.751743	1418.769287
4362.816606	0.089008	0.751743	1498.253052
4362.817537	0.089019	0.751743	1581.129272
4362.818437	0.088993	0.751743	1661.222900
4362.819339	0.088993	0.751743	1741.494507
4363.808202	0.858827	0.757983	377.883850
4363.809172	0.528197	0.757983	890.234924
4363.810107	0.093047	0.757983	977.233765
4363.811005	0.088890	0.757983	1057.057373
4363.811938	0.088938	0.757983	1140.036499
4363.812865	0.088927	0.757983	1222.471802
4363.813784	0.088956	0.757983	1304.222656
4363.814674	0.088982	0.757983	1383.416626
4363.815615	0.088964	0.757983	1467.131348
4363.816530	0.088982	0.757983	1548.549805
4363.817442	0.088960	0.757983	1629.681274
4363.818340	0.089000	0.757983	1709.603516
4364.828126	0.870714	0.748609	389.209229
4364.829033	0.593412	0.748609	927.433777
4364.829917	0.096848	0.748609	1013.047546
4364.830861	0.089008	0.748609	1097.070679
4364.831772	0.089011	0.748609	1178.159912
4364.832678	0.089000	0.748609	1258.794189
4364.833570	0.089092	0.748609	1338.264038
4364.834521	0.089066	0.748609	1422.965942
4364.835432	0.089000	0.748609	1504.045166
4364.836335	0.088960	0.748609	1584.375977
4364.837258	0.089015	0.748609	1666.536743
4364.838161	0.089106	0.748609	1746.999878
4365.822435	0.870004	0.763482	394.111664
4365.823335	0.591171	0.763482	926.165161
4365.824227	0.096460	0.763482	1012.207458
4365.825171	0.088938	0.763482	1096.164917
4365.826083	0.089008	0.763482	1177.339844
4365.827000	0.088967	0.763482	1258.922852
4365.827898	0.089041	0.763482	1338.881226
4365.828840	0.088971	0.763482	1422.691895
4365.829756	0.088967	0.763482	1504.185913
4365.830674	0.088982	0.763482	1585.871338
4365.831568	0.088945	0.763482	1665.388428
4365.832521	0.088993	0.763482	1750.198730
4366.846965	0.875317	0.753862	421.902985
4366.847895	0.524989	0.753862	910.142761
4366.848803	0.094047	0.753862	995.537109
4366.849697	0.088901	0.753862	1075.014893
4366.850625	0.089037	0.753862	1157.641113
4366.851532	0.089022	0.753862	1238.384277
4366.852433	0.088953	0.753862	1318.530640
4366.853324	0.089019	0.753862	1397.846191
4366.854274	0.089026	0.753862	1482.420776
4366.855184	0.088938	0.753862	1563.354370
4366.856078	0.088989	0.753862	1642.910767
4366.857008	0.089073	0.753862	1725.749146
4367.836147	0.873157	0.772839	406.891022
4367.837059	0.568187	0.772839	925.077759
4367.837949	0.095669	0.772839	1010.223145
4367.838893	0.088894	0.772839	1094.139160
4367.839807	0.088945	0.772839	1175.435181
4367.840726	0.088923	0.772839	1257.155762
4367.841616	0.088967	0.772839	1336.336670
4367.842567	0.088898	0.772839	1420.878418
4367.843505	0.088909	0.772839	1504.274780
4367.844403	0.088942	0.772839	1584.144409
4367.845316	0.088949	0.772839	1665.354858
4367.846255	0.088927	0.772839	1748.857300
4368.866252	0.862361	0.736665	381.163483
4368.867227	0.516152	0.736665	884.411987
4368.868138	0.093710	0.736665	969.781555
4368.869039	0.088975	0.736665	1049.947632
4368.869930	0.088931	0.736665	1129.184814
4368.870864	0.089008	0.736665	1212.317871
4368.871772	0.088945	0.736665	1293.080200
4368.872664	0.088953	0.736665	1372.425903
4368.873603	0.089004	0.736665	1456.000610
4368.874510	0.089062	0.736665	1536.780273
4368.875406	0.088909	0.736665	1616.442505
4368.876300	0.089033	0.736665	1696.038208
4369.850322	0.855015	0.764291	373.641388
4369.851223	0.606874	0.764291	920.434692
4369.852165	0.095277	0.764291	1010.185730
4369.853110	0.088923	0.764291	1094.218262
4369.854027	0.088993	0.764291	1175.824707
4369.854916	0.088989	0.764291	1254.936157
4369.855856	0.088938	0.764291	1338.537842
4369.856793	0.088927	0.764291	1421.862427
4369.857686	0.088986	0.764291	1501.326538
4369.858610	0.088942	0.764291	1583.508667
4369.859549	0.088945	0.764291	1667.028320
4369.860466	0.088993	0.764291	1748.634766
4370.885587	0.860815	0.724649	377.037140
4370.886526	0.584795	0.724649	926.159546
4370.887440	0.094860	0.724649	1012.861267
4370.888355	0.088934	0.724649	1094.236206
4370.889247	0.089037	0.724649	1173.657104
4370.890177	0.089114	0.724649	1256.532959
4370.891081	0.089000	0.724649	1336.989136
4370.891977	0.089015	0.724649	1416.746460
4370.892873	0.088901	0.724649	1496.402100
4370.893817	0.089048	0.724649	1580.463257
4370.894720	0.089048	0.724649	1660.873413
4370.895620	0.088993	0.724649	1740.967041
4371.865581	0.869363	0.761443	402.514954
4371.866495	0.570703	0.761443	924.137634
4371.867383	0.095577	0.761443	1009.010376
4371.868305	0.088887	0.761443	1090.963989
4371.869243	0.088949	0.761443	1174.398071
4371.870162	0.088912	0.761443	1256.108521
4371.871062	0.088986	0.761443	1336.195557
4371.871992	0.088986	0.761443	1418.952148
4371.872926	0.088956	0.761443	1502.037354
4371.873854	0.089015	0.761443	1584.643188
4371.874740	0.088901	0.761443	1663.409790
4371.875689	0.088949	0.761443	1747.822388
4372.904917	0.860354	0.719319	384.578247
4372.905817	0.595913	0.719319	920.900024
4372.906730	0.096837	0.719319	1009.312378
4372.907665	0.088909	0.719319	1092.442017
4372.908567	0.088923	0.719319	1172.650879
4372.909455	0.088956	0.719319	1251.644043
4372.910403	0.088956	0.719319	1335.974609
4372.911314	0.088949	0.719319	1417.007080
4372.912210	0.088949	0.719319	1496.705322
4372.913096	0.088854	0.719319	1575.429810
4372.914029	0.088953	0.719319	1658.422607
4372.914931	0.088975	0.719319	1738.677734
4373.880773	0.852814	0.761765	371.826782
4373.881708	0.580851	0.761765	914.922302
4373.882652	0.094369	0.761765	1004.006531
4373.883567	0.088905	0.761765	1085.354614
4373.884455	0.088975	0.761765	1164.364014
4373.885410	0.088923	0.761765	1249.285767
4373.886342	0.088960	0.761765	1332.196411
4373.887231	0.089011	0.761765	1411.327393
4373.888150	0.088960	0.761765	1493.081543
4373.889075	0.088949	0.761765	1575.359375
4373.890015	0.088923	0.761765	1658.947266
4373.890914	0.089008	0.761765	1738.965088
4374.923270	0.881140	0.710920	440.570068
4374.924197	0.504375	0.710920	908.125671
4374.925100	0.093761	0.710920	992.791870
4374.925986	0.088865	0.710920	1071.526001
4374.926927	0.088989	0.710920	1155.264893
4374.927826	0.088905	0.710920	1235.190552
4374.928731	0.089033	0.710920	1315.765625
4374.929617	0.088989	0.710920	1394.610107
4374.930569	0.089026	0.710920	1479.362793
4374.931472	0.088971	0.710920	1559.703613
4374.932363	0.088931	0.710920	1638.940796
4374.933292	0.089008	0.710920	1721.628784
4375.896039	0.869960	0.756339	396.701630
4375.896936	0.586154	0.756339	922.481323
4375.897863	0.095885	0.756339	1011.366699
4375.898795	0.088887	0.756339	1094.209106
4375.899711	0.088923	0.756339	1175.662842
4375.900609	0.088953	0.756339	1255.542358
4375.901555	0.088949	0.756339	1339.688110
4375.902487	0.088898	0.756339	1422.540771
4375.903392	0.088993	0.756339	1503.079346
4375.904299	0.088956	0.756339	1583.762695
4375.905233	0.088978	0.756339	1666.868408
4375.906163	0.088945	0.756339	1749.587524
4376.941020	0.877258	0.695645	397.398010
4376.941923	0.592731	0.695645	932.633850
4376.942807	0.097028	0.695645	1018.406250
4376.943758	0.088927	0.695645	1102.975830
4376.944653	0.088835	0.695645	1182.483521
4376.945540	0.088894	0.695645	1261.332520
4376.946476	0.088927	0.695645	1344.568237
4376.947390	0.088890	0.695645	1425.814087
4376.948294	0.088865	0.695645	1506.147827
4376.949186	0.088887	0.695645	1585.434814
4376.950142	0.088890	0.695645	1670.414062
4376.951056	0.088802	0.695645	1751.579590
4377.912804	0.873691	0.761037	398.403259
4377.913701	0.590376	0.761037	927.970520
4377.914629	0.094874	0.761037	1016.013855
4377.915569	0.088759	0.761037	1099.446899
4377.916481	0.088846	0.761037	1180.474854
4377.917378	0.088821	0.761037	1260.147095
4377.918329	0.088832	0.761037	1344.626099
4377.919263	0.088773	0.761037	1427.540283
4377.920158	0.088799	0.761037	1507.015259
4377.921078	0.088810	0.761037	1588.720337
4377.922013	0.088784	0.761037	1671.733521
4377.922929	0.088898	0.761037	1753.163818
4378.957773	0.856168	0.698626	375.857849
4378.958667	0.608221	0.698626	919.607849
4378.959631	0.094457	0.698626	1010.664185
4378.960543	0.088810	0.698626	1091.658691
4378.961442	0.088832	0.698626	1171.518433
4378.962362	0.088846	0.698626	1253.257202
4378.963273	0.089022	0.698626	1334.356445
4378.964185	0.088887	0.698626	1415.421143
4378.965086	0.088898	0.698626	1495.517944
4378.966022	0.088942	0.698626	1578.767334
4378.966926	0.088912	0.698626	1659.144043
4378.967831	0.088978	0.698626	1739.669434
4379.930651	0.934559	0.749802	486.905426
4379.931559	0.499135	0.749802	940.119568
4379.932481	0.092937	0.749802	1025.807495
4379.933369	0.088788	0.749802	1104.651123
4379.934308	0.088872	0.749802	1188.102051
4379.935228	0.088843	0.749802	1269.837402
4379.936125	0.088799	0.749802	1349.489990
4379.937051	0.088887	0.749802	1431.799072
4379.937961	0.088865	0.749802	1512.666016
4379.938889	0.088813	0.749802	1595.084961
4379.939776	0.088883	0.749802	1673.924194
4379.940733	0.088810	0.749802	1758.915161
4380.975052	0.852371	0.694541	371.633575
4380.975999	0.574867	0.694541	916.032593
4380.976912	0.094281	0.694541	1002.111145
4380.977817	0.088781	0.694541	1082.457520
4380.978706	0.088912	0.694541	1161.500610
4380.979637	0.089037	0.694541	1244.393921
4380.980553	0.088876	0.694541	1325.804077
4380.981457	0.088872	0.694541	1406.144409
4380.982345	0.088945	0.694541	1485.127808
4380.983283	0.088960	0.694541	1568.572266
4380.984178	0.088901	0.694541	1648.139038
4380.985063	0.088916	0.694541	1726.829712
4381.947894	0.873534	0.743497	416.675659
4381.948814	0.539088	0.743497	912.636719
4381.949710	0.094325	0.743497	997.151855
4381.950632	0.088799	0.743497	1079.024414
4381.951577	0.088868	0.743497	1163.005005
4381.952496	0.088821	0.743497	1244.631348
4381.953383	0.088865	0.743497	1323.454346
4381.954322	0.088821	0.743497	1406.857056
4381.955236	0.088916	0.743497	1488.126343
4381.956157	0.088843	0.743497	1569.950562
4381.957059	0.088872	0.743497	1650.113159
4381.958006	0.088857	0.743497	1734.261108
4382.990804	0.861526	0.699411	382.517456
4382.991703	0.601677	0.699411	923.425293
4382.992652	0.096017	0.699411	1014.545288
4382.993569	0.088872	0.699411	1096.041016
4382.994467	0.088861	0.699411	1175.838257
4382.995357	0.088901	0.699411	1254.960449
4382.996301	0.088975	0.699411	1338.952515
4382.997199	0.088843	0.699411	1418.733276
4382.998111	0.088843	0.699411	1499.757935
4382.999007	0.088887	0.699411	1579.400391
4382.999952	0.088901	0.699411	1663.412231
4383.000844	0.088927	0.699411	1742.735107
4383.966155	0.857666	0.736113	378.230713
4383.967057	0.596096	0.736113	915.909485
4383.968009	0.094548	0.736113	1005.919495
4383.968952	0.088821	0.736113	1089.677490
4383.969850	0.088894	0.736113	1169.504395
4383.970768	0.088857	0.736113	1251.075562
4383.971701	0.088872	0.736113	1333.993164
4383.972619	0.088883	0.736113	1415.587769
4383.973505	0.088861	0.736113	1494.318726
4383.974452	0.088839	0.736113	1578.449341
4383.975387	0.088865	0.736113	1661.537842
4383.976282	0.088883	0.736113	1741.088135
4385.007068	0.864580	0.701026	392.519348
4385.007967	0.591713	0.701026	924.468994
4385.008894	0.096610	0.701026	1014.026550
4385.009803	0.088813	0.701026	1094.758057
4385.010701	0.088846	0.701026	1174.542114
4385.011588	0.088938	0.701026	1253.430176
4385.012528	0.088898	0.701026	1336.994019
4385.013444	0.088894	0.701026	1418.420898
4385.014350	0.088824	0.701026	1498.895874
4385.015243	0.088909	0.701026	1578.291382
4385.016173	0.088982	0.701026	1661.044556
4385.017083	0.088777	0.701026	1741.831543
4385.984495	0.877126	0.736327	414.003693
4385.985425	0.530402	0.736327	907.277222
4385.986359	0.093138	0.736327	994.268494
4385.987248	0.088770	0.736327	1073.184570
4385.988203	0.088868	0.736327	1158.053955
4385.989136	0.088802	0.736327	1240.906738
4385.990035	0.088872	0.736327	1320.802734
4385.990964	0.088898	0.736327	1403.388672
4385.991894	0.088850	0.736327	1486.019287
4385.992806	0.088792	0.736327	1566.997192
4385.993701	0.088945	0.736327	1646.603271
4385.994627	0.088898	0.736327	1728.922607
4387.022283	0.869194	0.692837	381.576324
4387.023268	0.504994	0.692837	878.995361
4387.024172	0.093376	0.692837	963.407715
4387.025061	0.088839	0.692837	1042.385742
4387.026005	0.088905	0.692837	1126.312134
4387.026923	0.088912	0.692837	1207.933716
4387.027849	0.088890	0.692837	1290.246216
4387.028737	0.088967	0.692837	1369.249146
4387.029678	0.088938	0.692837	1452.939819
4387.030577	0.088912	0.692837	1532.872070
4387.031461	0.088923	0.692837	1611.480347
4387.032366	0.088938	0.692837	1691.969238
4388.002797	0.888289	0.732016	416.607330
4388.003700	0.568473	0.732016	929.938354
4388.004646	0.094153	0.732016	1019.006958
4388.005577	0.088799	0.732016	1101.678711
4388.006490	0.088879	0.732016	1182.825562
4388.007386	0.088876	0.732016	1262.458252
4388.008342	0.088890	0.732016	1347.437500
4388.009275	0.088894	0.732016	1430.375610
4388.010173	0.088916	0.732016	1510.222168
4388.011098	0.088792	0.732016	1592.354248
4388.012033	0.088890	0.732016	1675.466797
4388.012949	0.088912	0.732016	1756.910522
4389.037529	0.862123	0.697856	389.679504
4389.038429	0.594573	0.697856	924.794983
4389.039364	0.096486	0.697856	1015.009033
4389.040292	0.088755	0.697856	1097.373535
4389.041210	0.088854	0.697856	1178.941284
4389.042102	0.088835	0.697856	1258.182495
4389.043040	0.088890	0.697856	1341.561646
4389.043947	0.088883	0.697856	1422.178589
4389.044874	0.088901	0.697856	1504.590088
4389.045763	0.088854	0.697856	1583.581055
4389.046702	0.088835	0.697856	1666.997559
4389.047628	0.088967	0.697856	1749.381226
4390.022097	0.867554	0.721780	384.326294
4390.023023	0.571857	0.721780	913.865601
4390.023927	0.095248	0.721780	999.969604
4390.024862	0.088949	0.721780	1083.136841
4390.025763	0.088894	0.721780	1163.230347
4390.026666	0.088945	0.721780	1243.547974
4390.027553	0.088971	0.721780	1322.465210
4390.028501	0.088964	0.721780	1406.802734
4390.029398	0.088986	0.721780	1486.622803
4390.030297	0.088868	0.721780	1566.515503
4390.031200	0.088949	0.721780	1646.836426
4390.032134	0.088975	0.721780	1729.938721
4391.051235	0.865928	0.698585	387.935608
4391.052135	0.592939	0.698585	921.581177
4391.053071	0.096182	0.698585	1011.607178
4391.054007	0.088916	0.698585	1094.832520
4391.054929	0.088953	0.698585	1176.846802
4391.055814	0.088934	0.698585	1255.553711
4391.056740	0.088927	0.698585	1337.900146
4391.057664	0.088967	0.698585	1420.105957
4391.058583	0.089037	0.698585	1501.930786
4391.059472	0.088967	0.698585	1581.022705
4391.060425	0.088945	0.698585	1665.787598
4391.061361	0.089019	0.698585	1749.109009
4392.042466	0.874570	0.715420	393.556641
4392.043373	0.584293	0.715420	923.510620
4392.044262	0.096438	0.715420	1009.244019
4392.045198	0.089000	0.715420	1092.548218
4392.046113	0.089008	0.715420	1173.990112
4392.047017	0.088993	0.715420	1254.439697
4392.047906	0.088857	0.715420	1333.433960
4392.048861	0.089077	0.715420	1418.502686
4392.049764	0.089015	0.715420	1498.883179
4392.050658	0.088964	0.715420	1578.416626
4392.051600	0.088942	0.715420	1662.199707
4392.052506	0.088916	0.715420	1742.757568
4393.066439	0.855699	0.705196	374.796387
4393.067412	0.545112	0.705196	905.190674
4393.068347	0.093369	0.705196	992.490845
4393.069246	0.089004	0.705196	1072.505371
4393.070159	0.089026	0.705196	1153.786011
4393.071099	0.089052	0.705196	1237.494385
4393.072015	0.088971	0.705196	1318.991821
4393.072903	0.089117	0.705196	1398.128052
4393.073831	0.089066	0.705196	1480.781494
4393.074764	0.089033	0.705196	1563.849487
4393.075682	0.089088	0.705196	1645.632446
4393.076581	0.089015	0.705196	1725.656860
4394.060748	0.855685	0.722030	373.078583
4394.061645	0.594089	0.722030	905.976685
4394.062626	0.093860	0.722030	998.053223
4394.063528	0.088846	0.722030	1078.192749
4394.064416	0.088986	0.722030	1157.211914
4394.065352	0.088923	0.722030	1240.444092
4394.066270	0.088883	0.722030	1322.038696
4394.067186	0.088920	0.722030	1403.489136
4394.068075	0.088883	0.722030	1482.506226
4394.069027	0.088920	0.722030	1567.157715
4394.069919	0.088894	0.722030	1646.451172
4394.070809	0.088920	0.722030	1725.589722
4395.080652	0.871454	0.717821	385.182587
4395.081618	0.531339	0.717821	898.456177
4395.082535	0.094120	0.717821	984.764099
4395.083425	0.088879	0.717821	1063.866699
4395.084357	0.088934	0.717821	1146.753540
4395.085262	0.088927	0.717821	1227.232422
4395.086160	0.088971	0.717821	1307.128296
4395.087049	0.088901	0.717821	1386.161621
4395.087999	0.088967	0.717821	1470.680542
4395.088901	0.088879	0.717821	1550.849731
4395.089798	0.088927	0.717821	1630.617187
4395.090698	0.088905	0.717821	1710.631714
4396.079113	0.923621	0.721426	459.039429
4396.080020	0.524048	0.721426	934.350830
4396.080942	0.093732	0.721426	1020.771484
4396.081836	0.088890	0.721426	1100.239502
4396.082776	0.088927	0.721426	1183.830933
4396.083694	0.088942	0.721426	1265.479370
4396.084586	0.088931	0.721426	1344.805542
4396.085526	0.088934	0.721426	1428.403809
4396.086441	0.088945	0.721426	1509.788818
4396.087365	0.088989	0.721426	1592.014893
4396.088254	0.089026	0.721426	1671.158936
4396.089206	0.088982	0.721426	1755.869751
4397.095877	0.852422	0.726627	372.508331
4397.096770	0.615377	0.726627	922.040161
4397.097745	0.094263	0.726627	1013.946289
4397.098643	0.088927	0.726627	1093.802734
4397.099539	0.089015	0.726627	1173.560059
4397.100427	0.088953	0.726627	1252.550049
4397.101372	0.089044	0.726627	1336.696777
4397.102271	0.088901	0.726627	1416.619141
4397.103166	0.088923	0.726627	1496.205566
4397.104085	0.089004	0.726627	1578.000122
4397.104999	0.089077	0.726627	1659.416626
4397.105905	0.088989	0.726627	1740.040894
4398.096345	0.870883	0.716499	392.768036
4398.097280	0.553748	0.716499	910.522095
4398.098174	0.095164	0.716499	995.598328
4398.099145	0.088857	0.716499	1081.878906
4398.100068	0.088898	0.716499	1163.931519
4398.100962	0.089004	0.716499	1243.500977
4398.101884	0.088975	0.716499	1325.535522
4398.102811	0.088927	0.716499	1407.970825
4398.103732	0.089059	0.716499	1489.994019
4398.104622	0.088920	0.716499	1569.132568
4398.105555	0.088923	0.716499	1652.098022
4398.106472	0.088868	0.716499	1733.590332
4399.112650	0.859980	0.735038	377.531433
4399.113546	0.591218	0.735038	907.263000
4399.114541	0.093567	0.735038	1000.362061
4399.115446	0.088909	0.735038	1080.824463
4399.116342	0.088956	0.735038	1160.529297
4399.117280	0.089019	0.735038	1244.028687
4399.118184	0.088945	0.735038	1324.435303
4399.119084	0.089030	0.735038	1404.561890
4399.119974	0.088993	0.735038	1483.765625
4399.120901	0.089022	0.735038	1566.289185
4399.121801	0.088938	0.735038	1646.333374
4399.122710	0.088934	0.735038	1727.174683
4400.113643	0.891687	0.716399	420.876251
4400.114546	0.565389	0.716399	931.422852
4400.115490	0.094204	0.716399	1020.351501
4400.116420	0.088843	0.716399	1102.975342
4400.117334	0.088945	0.716399	1184.271362
4400.118232	0.088920	0.716399	1264.121216
4400.119191	0.088949	0.716399	1349.423340
4400.120106	0.088982	0.716399	1430.841797
4400.121028	0.088960	0.716399	1512.862915
4400.121920	0.088945	0.716399	1592.202148
4400.122877	0.088978	0.716399	1677.354370
4400.123813	0.088868	0.716399	1760.535156
4401.130970	0.864880	0.737789	384.871765
4401.131891	0.572465	0.737789	912.111633
4401.132792	0.095610	0.737789	998.256592
4401.133726	0.088978	0.737789	1081.362305
4401.134630	0.088997	0.737789	1161.815186
4401.135533	0.088909	0.737789	1242.099731
4401.136424	0.088898	0.737789	1321.307617
4401.137389	0.088975	0.737789	1407.168091
4401.138295	0.088978	0.737789	1487.782471
4401.139192	0.088953	0.737789	1567.572998
4401.140101	0.088953	0.737789	1648.430908
4401.141024	0.089019	0.737789	1730.594971
4402.128336	0.869875	0.725595	384.484955
4402.129318	0.513794	0.725595	889.030640
4402.130241	0.093109	0.725595	974.970337
4402.131138	0.088949	0.725595	1054.757568
4402.132046	0.088857	0.725595	1135.440063
4402.132989	0.088916	0.725595	1219.287842
4402.133923	0.088920	0.725595	1302.338867
4402.134822	0.088960	0.725595	1382.313843
4402.135733	0.089008	0.725595	1463.399780
4402.136673	0.088967	0.725595	1547.029053
4402.137590	0.088964	0.725595	1628.608643
4402.138480	0.089019	0.725595	1707.835205
4403.149256	0.852268	0.732995	371.588867
4403.150151	0.607460	0.732995	915.265320
4403.151119	0.094501	0.732995	1006.742065
4403.152020	0.088901	0.732995	1086.842163
4403.152914	0.088975	0.732995	1166.385498
4403.153855	0.088978	0.732995	1250.114014
4403.154757	0.089011	0.732995	1330.402100
4403.155658	0.088883	0.732995	1410.485718
4403.156548	0.088942	0.732995	1489.643799
4403.157489	0.089044	0.732995	1573.434326
4403.158396	0.088938	0.732995	1654.101074
4403.159294	0.088956	0.732995	1733.983887
4404.143100	0.886307	0.718574	427.200134
4404.144008	0.544244	0.718574	921.374023
4404.144894	0.095017	0.718574	1005.559143
4404.145841	0.088916	0.718574	1089.762573
4404.146785	0.088949	0.718574	1173.730347
4404.147683	0.088975	0.718574	1253.629517
4404.148602	0.088967	0.718574	1335.390381
4404.149535	0.088942	0.718574	1418.372925
4404.150455	0.088887	0.718574	1500.148682
4404.151350	0.089022	0.718574	1579.823608
4404.152273	0.088989	0.718574	1661.960693
4404.153214	0.088920	0.718574	1745.634155
4405.168612	0.869875	0.725797	395.793335
4405.169508	0.590200	0.725797	924.612671
4405.170446	0.095775	0.725797	1014.449768
4405.171357	0.088901	0.725797	1095.438965
4405.172263	0.088879	0.725797	1175.963745
4405.173151	0.088975	0.725797	1254.973145
4405.174095	0.089022	0.725797	1339.010132
4405.175001	0.088876	0.725797	1419.531494
4405.175892	0.088942	0.725797	1498.778564
4405.176800	0.089019	0.725797	1579.607422
4405.177718	0.089004	0.725797	1661.312988
4405.178620	0.088879	0.725797	1741.482178
4406.157766	0.850433	0.725648	368.237640
4406.158707	0.568363	0.725648	903.067261
4406.159651	0.094036	0.725648	991.836914
4406.160566	0.088890	0.725648	1073.171631
4406.161467	0.088927	0.725648	1153.294922
4406.162412	0.088942	0.725648	1237.344727
4406.163346	0.088982	0.725648	1320.453857
4406.164249	0.088993	0.725648	1400.814453
4406.165169	0.089000	0.725648	1482.694702
4406.166097	0.088993	0.725648	1565.280151
4406.167015	0.088982	0.725648	1646.965576
4406.167906	0.088967	0.725648	1726.235474
4407.187925	0.864800	0.715154	386.565521
4407.188838	0.584443	0.715154	920.162354
4407.189726	0.096343	0.715154	1005.714722
4407.190683	0.088901	0.715154	1090.793335
4407.191587	0.088945	0.715154	1171.199951
4407.192477	0.089008	0.715154	1250.416748
4407.193421	0.088949	0.715154	1334.384521
4407.194329	0.088986	0.715154	1415.183472
4407.195228	0.088923	0.715154	1495.125488
4407.196116	0.088927	0.715154	1574.092651
4407.197058	0.088971	0.715154	1657.903320
4407.197973	0.088927	0.715154	1739.271484
4408.172028	0.873333	0.726381	421.819611
4408.172964	0.513794	0.726381	902.730713
4408.173863	0.093754	0.726381	987.015259
4408.174784	0.088887	0.726381	1068.879883
4408.175702	0.088964	0.726381	1150.548462
4408.176641	0.088883	0.726381	1234.009644
4408.177536	0.088868	0.726381	1313.546875
4408.178460	0.088960	0.726381	1395.745850
4408.179398	0.088883	0.726381	1479.118164
4408.180316	0.088890	0.726381	1560.719482
4408.181214	0.088872	0.726381	1640.526611
4408.182160	0.088923	0.726381	1724.648071
4409.207265	0.870059	0.712141	390.656311
4409.208173	0.585926	0.712141	922.677551
4409.209061	0.096295	0.712141	1008.187622
4409.209995	0.088898	0.712141	1091.218018
4409.210913	0.088956	0.712141	1172.879883
4409.211815	0.088872	0.712141	1253.042480
4409.212705	0.088967	0.712141	1332.223389
4409.213659	0.088971	0.712141	1417.101685
4409.214570	0.088894	0.712141	1498.084106
4409.215467	0.088978	0.712141	1577.897583
4409.216359	0.089000	0.712141	1657.285767
4409.217291	0.088989	0.712141	1740.223755
4410.187208	0.851664	0.738655	371.325439
4410.188149	0.572856	0.738655	910.383362
4410.189094	0.093962	0.738655	999.177856
4410.190020	0.088868	0.738655	1081.469971
4410.190913	0.088942	0.738655	1160.894897
4410.191856	0.088909	0.738655	1244.735840
4410.192784	0.088960	0.738655	1327.290649
4410.193689	0.089000	0.738655	1407.835937
4410.194602	0.088927	0.738655	1489.026245
4410.195523	0.088901	0.738655	1570.904419
4410.196461	0.088861	0.738655	1654.256104
4410.197353	0.088945	0.738655	1733.595337
4411.224035	0.874325	0.710263	395.194855
4411.224938	0.592061	0.710263	929.825439
4411.225827	0.096497	0.710263	1015.610901
4411.226782	0.088945	0.710263	1100.553711
4411.227693	0.088949	0.710263	1181.586182
4411.228602	0.088927	0.710263	1262.420776
4411.229489	0.088934	0.710263	1341.305542
4411.230443	0.088967	0.710263	1426.180298
4411.231352	0.088879	0.710263	1506.971680
4411.232274	0.088894	0.710263	1588.932007
4411.233167	0.088909	0.710263	1668.327515
4411.234119	0.088934	0.710263	1752.993042
4412.201977	0.879661	0.751449	420.477783
4412.202886	0.550554	0.751449	920.931519
4412.203776	0.095043	0.751449	1005.519531
4412.204699	0.088835	0.751449	1087.514648
4412.205641	0.088920	0.751449	1171.276978
4412.206557	0.088872	0.751449	1252.683838
4412.207454	0.088938	0.751449	1332.461182
4412.208400	0.088923	0.751449	1416.582642
4412.209330	0.088931	0.751449	1499.288208
4412.210241	0.088971	0.751449	1580.340698
4412.211140	0.088890	0.751449	1660.253174
4412.212082	0.088920	0.751449	1744.015503
4413.242827	0.862657	0.704346	380.431946
4413.243802	0.523700	0.704346	891.039429
4413.244694	0.094266	0.704346	975.125000
4413.245585	0.088843	0.704346	1054.283936
4413.246510	0.088949	0.704346	1136.561768
4413.247434	0.088912	0.704346	1218.716797
4413.248343	0.088872	0.704346	1299.501465
4413.249233	0.088920	0.704346	1378.640015
4413.250159	0.088901	0.704346	1460.962646
4413.251074	0.088887	0.704346	1542.293945
4413.251990	0.088949	0.704346	1623.771240
4413.252882	0.088876	0.704346	1703.048340
4414.217673	0.855615	0.754039	374.759491
4414.218636	0.556820	0.754039	910.977295
4414.219564	0.093545	0.754039	997.786987
4414.220464	0.088942	0.754039	1077.834473
4414.221369	0.088887	0.754039	1158.276978
4414.222304	0.088920	0.754039	1241.416870
4414.223236	0.088923	0.754039	1324.293457
4414.224134	0.088912	0.754039	1404.136719
4414.225064	0.088916	0.754039	1486.828613
4414.226007	0.088964	0.754039	1570.721313
4414.226922	0.088971	0.754039	1652.129761
4414.227808	0.088938	0.754039	1730.928833
4415.259595	0.858984	0.708302	376.235138
4415.260583	0.508612	0.708302	878.743896
4415.261482	0.093677	0.708302	962.959290
4415.262398	0.088898	0.708302	1044.389648
4415.263296	0.088927	0.708302	1124.246094
4415.264241	0.088927	0.708302	1208.282104
4415.265162	0.088890	0.708302	1290.150146
4415.266056	0.089000	0.708302	1369.716309
4415.266997	0.088960	0.708302	1453.427612
4415.267915	0.088920	0.708302	1535.055908
4415.268837	0.088868	0.708302	1616.992554
4415.269728	0.089030	0.708302	1696.317871
4416.234440	0.850950	0.752033	368.461212
4416.235383	0.586146	0.752033	921.197144
4416.236296	0.094603	0.752033	1007.569946
4416.237199	0.088861	0.752033	1087.811523
4416.238089	0.088898	0.752033	1166.930420
4416.239041	0.088942	0.752033	1251.602905
4416.239937	0.088927	0.752033	1331.281494
4416.240834	0.088931	0.752033	1411.052246
4416.241720	0.088876	0.752033	1489.796143
4416.242656	0.089011	0.752033	1573.110596
4416.243566	0.088938	0.752033	1654.044189
4416.244461	0.088890	0.752033	1733.601074
4417.276360	0.865510	0.709949	379.093506
4417.277352	0.515922	0.709949	890.887695
4417.278278	0.093029	0.709949	977.032166
4417.279168	0.088876	0.709949	1056.131592
4417.280100	0.088857	0.709949	1138.946655
4417.281005	0.088912	0.709949	1219.412354
4417.281916	0.088920	0.709949	1300.418213
4417.282807	0.088905	0.709949	1379.632568
4417.283759	0.088909	0.709949	1464.273682
4417.284681	0.089004	0.709949	1546.335327
4417.285602	0.088956	0.709949	1628.264038
4417.286487	0.088905	0.709949	1706.944946
4418.252777	0.881631	0.753096	401.142029
4418.253683	0.580997	0.753096	927.525574
4418.254570	0.096368	0.753096	1013.004333
4418.255523	0.088934	0.753096	1097.758789
4418.256418	0.089055	0.753096	1177.463135
4418.257322	0.088993	0.753096	1257.912720
4418.258213	0.089030	0.753096	1337.238037
4418.259166	0.088989	0.753096	1422.044800
4418.260070	0.088989	0.753096	1502.491089
4418.260969	0.088978	0.753096	1582.482544
4418.261898	0.089073	0.753096	1665.231812
4418.262798	0.089033	0.753096	1745.361694
4419.292619	0.852762	0.714034	373.509949
4419.293557	0.551246	0.714034	890.579041
4419.294520	0.093267	0.714034	980.394775
4419.295443	0.088967	0.714034	1062.511597
4419.296330	0.088956	0.714034	1141.415771
4419.297284	0.088967	0.714034	1226.290527
4419.298210	0.088967	0.714034	1308.674194
4419.299098	0.089030	0.714034	1387.732422
4419.300040	0.088945	0.714034	1471.518921
4419.300964	0.088949	0.714034	1553.707764
4419.301883	0.089008	0.714034	1635.505737
4419.302779	0.088945	0.714034	1715.200684
4420.269015	0.864258	0.753101	382.866211
4420.269943	0.572922	0.753101	914.538147
4420.270844	0.095446	0.753101	1000.534607
4420.271772	0.088883	0.753101	1083.018066
4420.272681	0.088942	0.753101	1163.865967
4420.273581	0.088872	0.753101	1243.850830
4420.274467	0.088964	0.753101	1322.672607
4420.275410	0.089026	0.753101	1406.624023
4420.276312	0.088975	0.753101	1486.879150
4420.277208	0.088894	0.753101	1566.528198
4420.278098	0.088909	0.753101	1645.656982
4420.279040	0.089055	0.753101	1729.546997
4421.307887	0.875662	0.719416	413.312286
4421.308795	0.561848	0.719416	923.470337
4421.309682	0.095515	0.719416	1008.192261
4421.310619	0.088788	0.719416	1091.386475
4421.311561	0.088850	0.719416	1175.083252
4421.312464	0.088909	0.719416	1255.367798
4421.313384	0.088828	0.719416	1337.089722
4421.314326	0.088846	0.719416	1420.783081
4421.315248	0.088828	0.719416	1502.682617
4421.316143	0.088953	0.719416	1582.295166
4421.317070	0.088865	0.719416	1664.672852
4421.318008	0.088890	0.719416	1748.052002
4422.288398	0.927707	0.745568	470.347687
4422.289326	0.492144	0.745568	927.056885
4422.290224	0.093373	0.745568	1010.905640
4422.291112	0.088806	0.745568	1089.765503
4422.292053	0.088953	0.745568	1173.469971
4422.292943	0.088843	0.745568	1252.540039
4422.293839	0.088887	0.745568	1332.182495
4422.294774	0.088843	0.745568	1415.250488
4422.295677	0.088949	0.745568	1495.571411
4422.296587	0.088821	0.745568	1576.398315
4422.297489	0.088861	0.745568	1656.551025
4422.298434	0.088854	0.745568	1740.517822
4423.322571	0.861918	0.716262	380.105713
4423.323550	0.537063	0.716262	905.890381
4423.324461	0.093420	0.716262	990.996399
4423.325377	0.088898	0.716262	1072.426758
4423.326275	0.088905	0.716262	1152.263428
4423.327226	0.088879	0.716262	1236.787720
4423.328167	0.088949	0.716262	1320.488647
4423.329065	0.088916	0.716262	1400.335205
4423.329980	0.088931	0.716262	1481.706787
4423.330909	0.088905	0.716262	1564.299561
4423.331839	0.088997	0.716262	1647.066406
4423.332733	0.088978	0.716262	1726.613037
4424.307662	0.875479	0.743159	388.712463
4424.308643	0.504705	0.743159	883.827637
4424.309560	0.093365	0.743159	969.443787
4424.310453	0.088879	0.743159	1048.813110
4424.311387	0.089015	0.743159	1131.953003
4424.312294	0.088934	0.743159	1212.616455
4424.313196	0.088967	0.743159	1292.864990
4424.314082	0.088956	0.743159	1371.680298
4424.315025	0.089081	0.743159	1455.683472
4424.315927	0.088964	0.743159	1535.928711
4424.316820	0.089015	0.743159	1615.418945
4424.317711	0.089000	0.743159	1694.718140
4425.337347	0.911876	0.715948	444.995575
4425.338291	0.501552	0.715948	918.460205
4425.339181	0.093600	0.715948	1001.764099
4425.340105	0.088934	0.715948	1083.939453
4425.341035	0.088934	0.715948	1166.648437
4425.341951	0.089059	0.715948	1248.226318
4425.342842	0.088971	0.715948	1327.499390
4425.343786	0.089019	0.715948	1411.532959
4425.344726	0.088989	0.715948	1495.182861
4425.345624	0.088993	0.715948	1575.098511
4425.346546	0.088975	0.715948	1657.133057
4425.347488	0.088934	0.715948	1740.909180
4426.327002	0.858867	0.729503	377.901550
4426.327896	0.597979	0.729503	912.494385
4426.328857	0.094611	0.729503	1003.415161
4426.329759	0.088850	0.729503	1083.557983
4426.330646	0.088982	0.729503	1162.484985
4426.331597	0.088986	0.729503	1247.110352
4426.332499	0.088967	0.729503	1327.358887
4426.333405	0.088942	0.729503	1407.940063
4426.334297	0.088927	0.729503	1487.262939
4426.335231	0.089106	0.729503	1570.488403
4426.336146	0.088982	0.729503	1651.906860
4426.337051	0.088971	0.729503	1732.425537
4427.352026	0.865547	0.726477	386.033875
4427.352928	0.584264	0.726477	913.039917
4427.353891	0.094358	0.726477	1003.906616
4427.354804	0.088883	0.726477	1085.056885
4427.355698	0.088949	0.726477	1164.577271
4427.356619	0.088901	0.726477	1246.455444
4427.357555	0.088912	0.726477	1329.677368
4427.358471	0.089011	0.726477	1411.211670
4427.359359	0.089019	0.726477	1490.260132
4427.360309	0.088905	0.726477	1574.719971
4427.361245	0.088865	0.726477	1657.897339
4427.362138	0.089015	0.726477	1737.387695
4428.345809	0.865247	0.730409	385.899994
4428.346720	0.587908	0.730409	921.483887
4428.347605	0.096790	0.730409	1007.142639
4428.348570	0.088956	0.730409	1092.985474
4428.349467	0.088982	0.730409	1172.802246
4428.350354	0.089088	0.730409	1251.823364
4428.351276	0.088956	0.730409	1333.841064
4428.352183	0.088993	0.730409	1414.557617
4428.353086	0.089000	0.730409	1494.924805
4428.353979	0.089022	0.730409	1574.421631
4428.354914	0.088986	0.730409	1657.623169
4428.355835	0.088982	0.730409	1739.575562
4429.366770	0.874904	0.731259	411.204681
4429.367707	0.525450	0.731259	903.551758
4429.368604	0.094065	0.731259	987.927979
4429.369519	0.088839	0.731259	1069.215820
4429.370463	0.088909	0.731259	1153.145630
4429.371379	0.088934	0.731259	1234.609497
4429.372277	0.088989	0.731259	1314.521851
4429.373220	0.088942	0.731259	1398.393799
4429.374143	0.089011	0.731259	1480.551147
4429.375065	0.088905	0.731259	1562.521606
4429.375950	0.088964	0.731259	1641.254395
4429.376900	0.088872	0.731259	1725.682861
4430.364674	0.912997	0.727621	452.846436
4430.365598	0.515559	0.727621	929.223022
4430.366501	0.094014	0.727621	1014.117371
4430.367391	0.088872	0.727621	1093.213501
4430.368345	0.089022	0.727621	1178.140747
4430.369240	0.088971	0.727621	1257.769775
4430.370127	0.088949	0.727621	1336.667480
4430.371053	0.089044	0.727621	1419.122437
4430.371974	0.089011	0.727621	1501.101807
4430.372881	0.088964	0.727621	1581.791748
4430.373770	0.088960	0.727621	1660.877197
4430.374708	0.089022	0.727621	1744.380005
4431.381961	0.859193	0.733467	378.044952
4431.382932	0.534324	0.733467	896.873291
4431.383846	0.093651	0.733467	982.470398
4431.384739	0.088802	0.733467	1061.770996
4431.385669	0.088931	0.733467	1144.476562
4431.386612	0.088898	0.733467	1228.307129
4431.387537	0.088931	0.733467	1310.567993
4431.388441	0.089019	0.733467	1391.040771
4431.389357	0.088942	0.733467	1472.511353
4431.390293	0.088927	0.733467	1555.747070
4431.391205	0.088956	0.733467	1636.875244
4431.392098	0.088894	0.733467	1716.257568
4432.382924	0.850972	0.743465	369.321686
4432.383868	0.577258	0.743465	914.253540
4432.384782	0.094607	0.743465	1000.724243
4432.385678	0.088905	0.743465	1080.383179
4432.386569	0.088993	0.743465	1159.675903
4432.387533	0.089041	0.743465	1245.510986
4432.388427	0.088989	0.743465	1325.067383
4432.389326	0.088960	0.743465	1405.042358
4432.390216	0.088975	0.743465	1484.229736
4432.391159	0.088982	0.743465	1568.139648
4432.392059	0.088931	0.743465	1648.177246
4432.392952	0.088916	0.743465	1727.579224
4433.398736	0.868286	0.749874	385.519043
4433.399711	0.518232	0.749874	890.795654
4433.400635	0.093362	0.749874	977.061951
4433.401528	0.088949	0.749874	1056.493408
4433.402447	0.088905	0.749874	1138.197144
4433.403380	0.088953	0.749874	1221.189941
4433.404296	0.089055	0.749874	1302.764526
4433.405198	0.089044	0.749874	1383.082397
4433.406149	0.088953	0.749874	1467.676392
4433.407085	0.089008	0.749874	1550.987427
4433.407982	0.089011	0.749874	1630.830444
4433.408901	0.088993	0.749874	1712.614990
4434.399183	0.862518	0.752883	380.370575
4434.400079	0.592950	0.752883	911.654175
4434.401027	0.095068	0.752883	1001.778992
4434.401935	0.088846	0.752883	1082.451538
4434.402822	0.088993	0.752883	1161.388306
4434.403747	0.088993	0.752883	1243.706787
4434.404654	0.089037	0.752883	1324.463257
4434.405553	0.088982	0.752883	1404.458008
4434.406445	0.089008	0.752883	1483.852783
4434.407370	0.089062	0.752883	1566.235596
4434.408275	0.088931	0.752883	1646.717896
4434.409170	0.088931	0.752883	1726.310791
4435.416045	0.868235	0.761238	402.860992
4435.416955	0.565972	0.761238	917.895264
4435.417844	0.095790	0.761238	1003.052368
4435.418801	0.088883	0.761238	1088.113403
4435.419721	0.088876	0.761238	1169.879028
4435.420644	0.088927	0.761238	1251.958618
4435.421540	0.088949	0.761238	1331.656860
4435.422477	0.089019	0.761238	1415.067261
4435.423412	0.088964	0.761238	1498.248291
4435.424304	0.089008	0.761238	1577.643066
4435.425220	0.089004	0.761238	1659.170654
4435.426158	0.088960	0.761238	1742.615112
4436.415436	0.854769	0.767397	374.388947
4436.416332	0.604369	0.767397	915.903442
4436.417298	0.094226	0.767397	1006.925842
4436.418203	0.088872	0.767397	1087.355103
4436.419104	0.088912	0.767397	1167.465088
4436.420030	0.088971	0.767397	1249.852173
4436.420931	0.089048	0.767397	1330.084229
4436.421840	0.088898	0.767397	1410.892212
4436.422736	0.089000	0.767397	1490.636475
4436.423677	0.088960	0.767397	1574.347778
4436.424582	0.088975	0.767397	1654.869751
4436.425484	0.088993	0.767397	1735.141357
4437.434321	0.856381	0.762974	378.520233
4437.435299	0.540648	0.762974	907.274170
4437.436223	0.093380	0.762974	993.557373
4437.437118	0.088813	0.762974	1073.045410
4437.438035	0.088916	0.762974	1154.581421
4437.438964	0.088781	0.762974	1237.058472
4437.439886	0.088861	0.762974	1318.988403
4437.440790	0.088799	0.762974	1399.262573
4437.441724	0.088784	0.762974	1482.187012
4437.442661	0.088857	0.762974	1565.446411
4437.443577	0.088726	0.762974	1646.718994
4437.444466	0.088770	0.762974	1725.635132
4438.429647	0.872747	0.772731	389.244965
4438.430623	0.518053	0.772731	894.864624
4438.431534	0.093680	0.772731	980.207520
4438.432423	0.088737	0.772731	1059.094360
4438.433353	0.088909	0.772731	1141.779419
4438.434258	0.088901	0.772731	1222.235107
4438.435156	0.088876	0.772731	1302.045532
4438.436051	0.088821	0.772731	1381.540161
4438.437011	0.088938	0.772731	1466.920654
4438.437917	0.088931	0.772731	1547.491821
4438.438814	0.088901	0.772731	1627.236328
4438.439728	0.088894	0.772731	1708.485474
4439.451619	0.860691	0.766350	384.728821
4439.452530	0.585912	0.766350	918.494507
4439.453421	0.096064	0.766350	1004.087952
4439.454352	0.088854	0.766350	1086.810791
4439.455273	0.088821	0.766350	1168.614746
4439.456193	0.088912	0.766350	1250.414062
4439.457085	0.088920	0.766350	1329.730469
4439.458032	0.088832	0.766350	1413.854126
4439.458937	0.088876	0.766350	1494.286621
4439.459843	0.088956	0.766350	1574.880981
4439.460736	0.088894	0.766350	1654.263306
4439.461676	0.088909	0.766350	1737.837524
4440.444871	0.849489	0.779655	366.979065
4440.445791	0.600718	0.779655	919.639404
4440.446718	0.094951	0.779655	1007.659119
4440.447622	0.088777	0.779655	1087.913452
4440.448526	0.088901	0.779655	1168.280273
4440.449412	0.088854	0.779655	1247.004761
4440.450360	0.088931	0.779655	1331.311035
4440.451268	0.088839	0.779655	1411.976929
4440.452158	0.088879	0.779655	1491.079590
4440.453094	0.088934	0.779655	1574.322144
4440.454001	0.088883	0.779655	1654.939087
4440.454901	0.088861	0.779655	1734.914062
4441.470454	0.878752	0.761435	425.316162
4441.471375	0.535085	0.761435	918.129883
4441.472292	0.093754	0.761435	1004.101990
4441.473189	0.088901	0.761435	1083.846558
4441.474135	0.088967	0.761435	1168.009644
4441.475046	0.088909	0.761435	1249.005493
4441.475964	0.088912	0.761435	1330.627075
4441.476853	0.088923	0.761435	1409.679932
4441.477805	0.088920	0.761435	1494.331421
4441.478704	0.088916	0.761435	1574.266968
4441.479615	0.088953	0.761435	1655.302856
4441.480510	0.088960	0.761435	1734.921997
4442.460126	0.866008	0.775119	387.971710
4442.461030	0.591090	0.775119	922.317139
4442.461935	0.096504	0.775119	1009.653198
4442.462869	0.088832	0.775119	1092.622070
4442.463818	0.088967	0.775119	1177.052002
4442.464722	0.088986	0.775119	1257.494995
4442.465646	0.088927	0.775119	1339.663574
4442.466594	0.088956	0.775119	1423.994141
4442.467507	0.088978	0.775119	1505.231323
4442.468396	0.088945	0.775119	1584.303711
4442.469343	0.088956	0.775119	1668.545288
4442.470279	0.088971	0.775119	1751.822144
4443.488721	0.856198	0.757914	378.439301
4443.489615	0.610419	0.757914	924.153564
4443.490584	0.094519	0.757914	1015.742493
4443.491489	0.088894	0.757914	1096.191650
4443.492415	0.088956	0.757914	1178.565186
4443.493304	0.089041	0.757914	1257.722168
4443.494249	0.088923	0.757914	1341.754761
4443.495150	0.088931	0.757914	1421.881348
4443.496042	0.088964	0.757914	1501.236938
4443.496964	0.088986	0.757914	1583.281616
4443.497870	0.088912	0.757914	1663.836182
4443.498793	0.088887	0.757914	1745.878662
4444.475895	0.880939	0.768227	411.398376
4444.476811	0.559863	0.768227	924.233154
4444.477701	0.095343	0.768227	1009.088440
4444.478658	0.088934	0.768227	1094.198608
4444.479583	0.088986	0.768227	1176.510254
4444.480482	0.088971	0.768227	1256.495117
4444.481407	0.088927	0.768227	1338.752563
4444.482337	0.088960	0.768227	1421.485352
4444.483256	0.088964	0.768227	1503.242920
4444.484148	0.088927	0.768227	1582.565796
4444.485090	0.088927	0.768227	1666.335083
4444.486018	0.088872	0.768227	1748.808350
4445.508055	0.870817	0.740387	388.384216
4445.508959	0.592610	0.740387	924.103577
4445.509902	0.094827	0.740387	1013.525146
4445.510816	0.088817	0.740387	1094.703979
4445.511716	0.089000	0.740387	1174.804199
4445.512600	0.088953	0.740387	1253.438354
4445.513552	0.088993	0.740387	1338.159668
4445.514453	0.088923	0.740387	1418.279541
4445.515345	0.088949	0.740387	1497.622070
4445.516287	0.088978	0.740387	1581.439575
4445.517183	0.089019	0.740387	1661.200195
4445.518075	0.088916	0.740387	1740.513306
4446.490609	0.878016	0.758595	419.691803
4446.491548	0.532412	0.758595	919.626770
4446.492460	0.093864	0.758595	1005.230286
4446.493349	0.088945	0.758595	1084.302612
4446.494285	0.088964	0.758595	1167.572510
4446.495225	0.088993	0.758595	1251.225830
4446.496138	0.088967	0.758595	1332.453003
4446.497037	0.088997	0.758595	1412.460937
4446.497962	0.088916	0.758595	1494.708252
4446.498896	0.088945	0.758595	1577.783203
4446.499823	0.089048	0.758595	1660.330566
4446.500711	0.089011	0.758595	1739.372559
4447.525900	0.913982	0.735686	458.818939
4447.526814	0.511582	0.735686	926.404907
4447.527715	0.093951	0.735686	1011.055115
4447.528607	0.088872	0.735686	1090.328979
4447.529554	0.089117	0.735686	1174.723145
4447.530460	0.088993	0.735686	1255.350708
4447.531358	0.089055	0.735686	1335.322266
4447.532291	0.089019	0.735686	1418.376587
4447.533191	0.089055	0.735686	1498.526245
4447.534088	0.088964	0.735686	1578.326660
4447.534979	0.089073	0.735686	1657.691162
4447.535921	0.089037	0.735686	1741.563843
4448.506869	0.879111	0.753781	424.610779
4448.507799	0.520525	0.753781	908.698975
4448.508719	0.093351	0.753781	994.581726
4448.509619	0.088975	0.753781	1074.658936
4448.510573	0.088953	0.753781	1159.519775
4448.511494	0.089000	0.753781	1241.489014
4448.512412	0.088993	0.753781	1323.184570
4448.513303	0.088971	0.753781	1402.457642
4448.514258	0.088953	0.753781	1487.407471
4448.515179	0.088931	0.753781	1569.312622
4448.516065	0.088971	0.753781	1648.140869
4448.516994	0.088938	0.753781	1730.764282
4449.543645	0.872109	0.732540	397.681854
4449.544542	0.590955	0.732540	927.768188
4449.545485	0.096211	0.732540	1018.495117
4449.546391	0.088843	0.732540	1098.986694
4449.547294	0.088945	0.732540	1179.304321
4449.548183	0.088920	0.732540	1258.353882
4449.549120	0.089000	0.732540	1341.747070
4449.550024	0.089015	0.732540	1422.216553
4449.550927	0.088978	0.732540	1502.563965
4449.551811	0.088953	0.732540	1581.198120
4449.552753	0.089000	0.732540	1665.036377
4449.553654	0.088865	0.732540	1745.103516
4450.523088	0.879994	0.750929	392.477264
4450.524074	0.495707	0.750929	881.244141
4450.524998	0.092911	0.750929	967.094238
4450.525892	0.088960	0.750929	1046.624390
4450.526838	0.088978	0.750929	1130.797852
4450.527734	0.088898	0.750929	1210.450195
4450.528645	0.089044	0.750929	1291.569458
4450.529545	0.088956	0.750929	1371.630127
4450.530485	0.088953	0.750929	1455.245605
4450.531405	0.088923	0.750929	1537.055054
4450.532302	0.088978	0.750929	1616.868530
4450.533221	0.088975	0.750929	1698.636230
4451.560401	0.855176	0.729599	378.842865
4451.561294	0.608379	0.729599	922.125244
4451.562238	0.095046	0.729599	1011.848999
4451.563156	0.088890	0.729599	1093.450317
4451.564064	0.089000	0.729599	1174.262573
4451.564951	0.088942	0.729599	1253.153809
4451.565902	0.088997	0.729599	1337.789551
4451.566815	0.088997	0.729599	1419.043457
4451.567706	0.088967	0.729599	1498.313354
4451.568641	0.088949	0.729599	1581.480591
4451.569547	0.088953	0.729599	1662.071655
4451.570442	0.088898	0.729599	1741.635132
4452.539900	0.887018	0.747997	433.751709
4452.540821	0.528578	0.747997	920.571899
4452.541749	0.093505	0.747997	1007.344177
4452.542641	0.088887	0.747997	1086.631104
4452.543589	0.088898	0.747997	1170.906128
4452.544488	0.088931	0.747997	1250.854736
4452.545386	0.088975	0.747997	1330.753906
4452.546299	0.088949	0.747997	1411.964355
4452.547240	0.088989	0.747997	1495.703247
4452.548160	0.088971	0.747997	1577.556519
4452.549045	0.088975	0.747997	1656.299072
4452.549980	0.088909	0.747997	1739.428711
4453.576651	0.854945	0.725688	376.175842
4453.577546	0.604065	0.725688	916.813965
4453.578520	0.094102	0.725688	1008.468872
4453.579419	0.088945	0.725688	1088.430664
4453.580315	0.088942	0.725688	1168.122437
4453.581204	0.088971	0.725688	1247.217651
4453.582145	0.089019	0.725688	1330.984131
4453.583044	0.089044	0.725688	1411.034912
4453.583941	0.088920	0.725688	1490.795898
4453.584853	0.088956	0.725688	1571.924072
4453.585782	0.088989	0.725688	1654.595093
4453.586687	0.088872	0.725688	1735.024292
4454.558156	0.857970	0.744637	375.790833
4454.559090	0.590098	0.744637	926.942017
4454.560011	0.094545	0.744637	1014.017700
4454.560925	0.088942	0.744637	1095.310303
4454.561813	0.088964	0.744637	1174.310059
4454.562748	0.089022	0.744637	1257.545776
4454.563652	0.088975	0.744637	1337.978760
4454.564572	0.089030	0.744637	1419.885986
4454.565456	0.088964	0.744637	1498.529785
4454.566407	0.089004	0.744637	1583.172485
4454.567306	0.088982	0.744637	1663.167236
4454.568202	0.089019	0.744637	1742.927856
4455.592908	0.854876	0.720286	378.709839
4455.593867	0.540557	0.720286	897.103638
4455.594801	0.093446	0.720286	984.382263
4455.595721	0.088894	0.720286	1066.164795
4455.596619	0.088967	0.720286	1146.057373
4455.597566	0.088934	0.720286	1230.278198
4455.598494	0.088883	0.720286	1312.761719
4455.599390	0.089000	0.720286	1392.505981
4455.600305	0.088894	0.720286	1473.843994
4455.601246	0.088949	0.720286	1557.544922
4455.602159	0.089008	0.720286	1638.808838
4455.603049	0.088945	0.720286	1717.970215
4456.575952	0.864185	0.740275	380.241211
4456.576866	0.590354	0.740275	919.824707
4456.577753	0.096749	0.740275	1005.641296
4456.578715	0.088953	0.740275	1091.213745
4456.579625	0.088964	0.740275	1172.170654
4456.580522	0.088938	0.740275	1251.947998
4456.581452	0.089000	0.740275	1334.718262
4456.582354	0.089073	0.740275	1415.062500
4456.583251	0.089033	0.740275	1494.925293
4456.584136	0.089066	0.740275	1573.748901
4456.585076	0.089059	0.740275	1657.464233
4456.585981	0.088986	0.740275	1737.996216
4457.608651	0.853978	0.718441	373.188507
4457.609592	0.581730	0.718441	920.596191
4457.610539	0.093977	0.718441	1009.592468
4457.611461	0.088879	0.718441	1091.539307
4457.612357	0.088986	0.718441	1171.270386
4457.613290	0.088986	0.718441	1254.293945
4457.614217	0.088923	0.718441	1336.725830
4457.615154	0.088964	0.718441	1420.084717
4457.616055	0.088960	0.718441	1500.237671
4457.616992	0.088883	0.718441	1583.521118
4457.617923	0.088978	0.718441	1666.359863
4457.618840	0.088982	0.718441	1747.956299
4458.594250	0.867059	0.731525	380.639069
4458.595223	0.523293	0.731525	889.803589
4458.596136	0.094043	0.731525	975.664795
4458.597030	0.088993	0.731525	1055.224487
4458.597966	0.088986	0.731525	1138.515015
4458.598866	0.088971	0.731525	1218.588867
4458.599774	0.089015	0.731525	1299.414429
4458.600667	0.088879	0.731525	1378.783691
4458.601598	0.088927	0.731525	1461.574707
4458.602499	0.088967	0.731525	1541.734253
4458.603403	0.088964	0.731525	1622.157349
4458.604297	0.088971	0.731525	1701.697388
4459.623914	0.886377	0.713390	416.597137
4459.624831	0.552847	0.713390	923.557495
4459.625718	0.095427	0.713390	1008.201477
4459.626683	0.088901	0.713390	1093.991333
4459.627612	0.088916	0.713390	1176.594360
4459.628502	0.088956	0.713390	1255.765503
4459.629422	0.088960	0.713390	1337.608643
4459.630348	0.088876	0.713390	1419.907593
4459.631267	0.088920	0.713390	1501.624756
4459.632159	0.088883	0.713390	1580.908447
4459.633096	0.088975	0.713390	1664.277710
4459.634028	0.088894	0.713390	1747.126953
4460.612567	0.871494	0.733837	392.172363
4460.613471	0.588281	0.733837	923.978638
4460.614406	0.095944	0.733837	1013.685913
4460.615316	0.088931	0.733837	1094.612793
4460.616220	0.088923	0.733837	1174.999512
4460.617111	0.088865	0.733837	1254.177979
4460.618063	0.089073	0.733837	1338.975952
4460.618967	0.088923	0.733837	1419.362671
4460.619875	0.088986	0.733837	1500.161621
4460.620769	0.088953	0.733837	1579.685303
4460.621714	0.088964	0.733837	1663.755859
4460.622614	0.088942	0.733837	1743.803345
4461.639642	0.869026	0.711174	391.061646
4461.640561	0.568971	0.711174	913.945923
4461.641450	0.095856	0.711174	999.161621
4461.642409	0.088890	0.711174	1084.407471
4461.643324	0.088942	0.711174	1165.789062
4461.644236	0.088901	0.711174	1246.867065
4461.645124	0.088861	0.711174	1325.775757
4461.646065	0.088912	0.711174	1409.442261
4461.646981	0.088931	0.711174	1490.902710
4461.647874	0.088898	0.711174	1570.288330
4461.648796	0.088934	0.711174	1652.285767
4461.649716	0.088887	0.711174	1734.061523
4462.631383	0.864679	0.727553	384.782104
4462.632289	0.589376	0.727553	918.756958
4462.633209	0.096079	0.727553	1007.149719
4462.634150	0.088934	0.727553	1090.836914
4462.635061	0.089004	0.727553	1171.919434
4462.635959	0.088964	0.727553	1251.808716
4462.636872	0.088938	0.727553	1333.009155
4462.637812	0.088912	0.727553	1416.586792
4462.638729	0.088890	0.727553	1498.099243
4462.639619	0.088927	0.727553	1577.244263
4462.640564	0.088986	0.727553	1661.335693
4462.641481	0.089044	0.727553	1742.989258
4463.654913	0.875566	0.713575	433.405365
4463.655823	0.528032	0.713575	913.914673
4463.656738	0.093823	0.713575	999.762939
4463.657633	0.088806	0.713575	1079.244385
4463.658568	0.089062	0.713575	1162.517822
4463.659486	0.088960	0.713575	1244.183105
4463.660405	0.088982	0.713575	1325.957520
4463.661293	0.088967	0.713575	1404.960449
4463.662241	0.088960	0.713575	1489.294434
4463.663134	0.088956	0.713575	1568.732422
4463.664029	0.088967	0.713575	1648.358154
4463.664971	0.089026	0.713575	1732.220581
4464.649166	0.864236	0.722207	383.720703
4464.650132	0.537957	0.722207	903.386719
4464.651057	0.093285	0.722207	989.675293
4464.651953	0.088835	0.722207	1069.271851
4464.652869	0.088821	0.722207	1150.631714
4464.653807	0.088850	0.722207	1233.973145
4464.654720	0.088964	0.722207	1315.196899
4464.655608	0.088843	0.722207	1394.089233
4464.656542	0.088828	0.722207	1477.054687
4464.657472	0.088927	0.722207	1559.756836
4464.658388	0.088868	0.722207	1641.160278
4464.659275	0.088806	0.722207	1719.931396
4465.670089	0.855469	0.718727	372.984375
4465.671037	0.563108	0.718727	906.810669
4465.671947	0.094677	0.718727	992.966309
4465.672848	0.088832	0.718727	1073.003784
4465.673739	0.088942	0.718727	1152.250732
4465.674664	0.088989	0.718727	1234.565796
4465.675590	0.088861	0.718727	1316.851196
4465.676492	0.088901	0.718727	1397.040283
4465.677383	0.088901	0.718727	1476.251343
4465.678325	0.088982	0.718727	1560.072266
4465.679233	0.088883	0.718727	1640.778076
4465.680157	0.088931	0.718727	1722.949951
4466.667476	0.864730	0.728528	383.940186
4466.668378	0.600524	0.728528	925.612549
4466.669313	0.095259	0.728528	1014.679504
4466.670257	0.088898	0.728528	1098.598877
4466.671178	0.088934	0.728528	1180.507446
4466.672063	0.088901	0.728528	1259.185181
4466.673004	0.089008	0.728528	1342.941284
4466.673938	0.088953	0.728528	1426.023071
4466.674856	0.088993	0.728528	1507.718506
4466.675752	0.088894	0.728528	1587.367554
4466.676697	0.088887	0.728528	1671.365479
4466.677628	0.088923	0.728528	1754.153076
4467.685333	0.869619	0.732476	389.589355
4467.686241	0.586772	0.732476	922.378723
4467.687139	0.096306	0.732476	1008.861633
4467.688095	0.088887	0.732476	1093.837402
4467.688998	0.088964	0.732476	1174.171509
4467.689889	0.088953	0.732476	1253.428345
4467.690821	0.089048	0.732476	1336.420898
4467.691728	0.088956	0.732476	1417.104248
4467.692622	0.089000	0.732476	1496.670410
4467.693512	0.089015	0.732476	1575.893677
4467.694450	0.088986	0.732476	1659.362183
4467.695361	0.088945	0.732476	1740.391357
4468.685818	0.894294	0.732766	436.415680
4468.686757	0.505144	0.732766	910.745972
4468.687670	0.093171	0.732766	995.811462
4468.688567	0.088901	0.732766	1075.556030
4468.689515	0.088953	0.732766	1159.883179
4468.690452	0.088964	0.732766	1243.242065
4468.691352	0.089004	0.732766	1323.345581
4468.692267	0.088894	0.732766	1404.683594
4468.693207	0.088894	0.732766	1488.244019
4468.694125	0.088975	0.732766	1569.922729
4468.695012	0.088912	0.732766	1648.787964
4468.695955	0.088898	0.732766	1732.618530
4469.701607	0.880397	0.741314	400.580505
4469.702518	0.571384	0.741314	921.111572
4469.703405	0.096130	0.741314	1006.379211
4469.704360	0.088949	0.741314	1091.325439
4469.705255	0.088978	0.741314	1170.960937
4469.706144	0.088997	0.741314	1250.078857
4469.707067	0.089092	0.741314	1332.310547
4469.707992	0.089004	0.741314	1414.639160
4469.708896	0.088901	0.741314	1495.005981
4469.709788	0.088964	0.741314	1574.361572
4469.710718	0.089030	0.741314	1657.159058
4469.711618	0.088956	0.741314	1737.219727
4470.703079	0.874321	0.726804	403.936432
4470.703993	0.563661	0.726804	919.122437
4470.704886	0.095460	0.726804	1004.368408
4470.705808	0.088912	0.726804	1086.345581
4470.706736	0.088857	0.726804	1168.805298
4470.707651	0.089004	0.726804	1250.243896
4470.708539	0.088920	0.726804	1329.204590
4470.709475	0.088956	0.726804	1412.467651
4470.710415	0.089008	0.726804	1496.134766
4470.711309	0.088953	0.726804	1575.658447
4470.712228	0.088938	0.726804	1657.392456
4470.713159	0.088938	0.726804	1740.193726
4471.718361	0.868374	0.745382	390.768311
4471.719269	0.587234	0.745382	923.976685
4471.720177	0.096500	0.745382	1011.598877
4471.721113	0.088938	0.745382	1094.844849
4471.722014	0.088986	0.745382	1175.020874
4471.722902	0.088986	0.745382	1254.040039
4471.723832	0.088964	0.745382	1336.776245
4471.724743	0.088978	0.745382	1417.835449
4471.725649	0.088982	0.745382	1498.453125
4471.726536	0.088945	0.745382	1577.347656
4471.727474	0.089004	0.745382	1660.833374
4471.728374	0.088901	0.745382	1740.844604
4472.718837	0.883180	0.739336	423.043182
4472.719781	0.504382	0.739336	899.180054
4472.720713	0.092886	0.739336	985.749573
4472.721599	0.089062	0.739336	1064.658936
4472.722551	0.089033	0.739336	1149.418579
4472.723482	0.089011	0.739336	1232.288086
4472.724379	0.089143	0.739336	1312.249390
4472.725309	0.088989	0.739336	1395.009399
4472.726234	0.089095	0.739336	1477.422729
4472.727156	0.089103	0.739336	1559.575439
4472.728052	0.089092	0.739336	1639.401733
4472.728986	0.088967	0.739336	1722.497192
4473.736720	0.877053	0.734006	444.665985
4473.737638	0.500270	0.734006	903.913635
4473.738546	0.093391	0.734006	988.712769
4473.739433	0.088898	0.734006	1067.565063
4473.740372	0.089000	0.734006	1151.136353
4473.741290	0.088964	0.734006	1232.804932
4473.742191	0.088997	0.734006	1312.990845
4473.743080	0.088997	0.734006	1392.108765
4473.744022	0.089059	0.734006	1476.002197
4473.744926	0.088879	0.734006	1556.349121
4473.745816	0.088945	0.734006	1635.510498
4473.746738	0.089052	0.734006	1717.615967
4474.734537	0.853839	0.743775	369.712341
4474.735481	0.557322	0.743775	895.824097
4474.736421	0.093845	0.743775	984.038574
4474.737344	0.088857	0.743775	1066.053955
4474.738234	0.088986	0.743775	1145.251099
4474.739180	0.088857	0.743775	1229.310181
4474.740114	0.088927	0.743775	1312.368042
4474.741005	0.089004	0.743775	1391.670532
4474.741927	0.088923	0.743775	1473.657837
4474.742860	0.088923	0.743775	1556.623291
4474.743778	0.088982	0.743775	1638.308716
4474.744673	0.088927	0.743775	1717.898437
4475.754482	0.877599	0.733616	408.083466
4475.755398	0.559874	0.733616	920.928345
4475.756286	0.095394	0.733616	1005.638489
4475.757229	0.088934	0.733616	1089.503540
4475.758137	0.088920	0.733616	1170.242554
4475.759049	0.088997	0.733616	1251.407471
4475.759944	0.088938	0.733616	1331.006958
4475.760904	0.089015	0.733616	1416.461304
4475.761808	0.088912	0.733616	1496.838135
4475.762697	0.089008	0.733616	1575.965820
4475.763626	0.089008	0.733616	1658.653809
4475.764545	0.088953	0.733616	1740.401245
4476.749811	0.899344	0.740424	430.785980
4476.750722	0.548269	0.740424	930.259033
4476.751611	0.095094	0.740424	1014.797607
4476.752558	0.088872	0.740424	1098.959473
4476.753496	0.088982	0.740424	1182.424561
4476.754402	0.089092	0.740424	1263.141724
4476.755324	0.088982	0.740424	1345.183105
4476.756257	0.088931	0.740424	1428.155396
4476.757173	0.088945	0.740424	1509.629272
4476.758063	0.089008	0.740424	1588.845947
4476.759008	0.088883	0.740424	1672.840454
4476.759942	0.088967	0.740424	1755.935913
4477.773258	0.869377	0.725212	380.787323
4477.774243	0.519148	0.725212	892.148071
4477.775139	0.093882	0.725212	976.266174
4477.776026	0.088828	0.725212	1055.056763
4477.776955	0.088986	0.725212	1137.724365
4477.777866	0.088934	0.725212	1218.743530
4477.778781	0.088931	0.725212	1300.115112
4477.779675	0.088905	0.725212	1379.596191
4477.780630	0.088971	0.725212	1464.563477
4477.781532	0.088898	0.725212	1544.749268
4477.782422	0.088964	0.725212	1623.926880
4477.783339	0.088997	0.725212	1705.536743
4478.764490	0.861042	0.742595	376.275543
4478.765486	0.516628	0.742595	890.837402
4478.766411	0.093076	0.742595	976.932861
4478.767298	0.088978	0.742595	1055.856567
4478.768211	0.088945	0.742595	1137.063599
4478.769148	0.089022	0.742595	1220.477417
4478.770065	0.088956	0.742595	1302.050293
4478.770963	0.088927	0.742595	1381.906738
4478.771911	0.088982	0.742595	1466.261597
4478.772848	0.088960	0.742595	1549.617065
4478.773769	0.088912	0.742595	1631.505371
4478.774658	0.089033	0.742595	1710.655884
4479.791568	0.858790	0.720987	379.585297
4479.792467	0.603973	0.720987	922.557373
4479.793415	0.096211	0.720987	1013.765320
4479.794325	0.088876	0.720987	1094.642212
4479.795243	0.088993	0.720987	1176.337646
4479.796135	0.088975	0.720987	1255.703003
4479.797081	0.089004	0.720987	1339.900635
4479.797982	0.088938	0.720987	1420.033813
4479.798869	0.088938	0.720987	1498.921875
4479.799784	0.088989	0.720987	1580.347046
4479.800712	0.088982	0.720987	1662.922241
4479.801615	0.088997	0.720987	1743.286133
4480.779752	0.886714	0.750804	413.208649
4480.780661	0.560387	0.750804	922.600403
4480.781595	0.094559	0.750804	1010.918823
4480.782535	0.088949	0.750804	1094.530884
4480.783453	0.089011	0.750804	1176.243164
4480.784338	0.088989	0.750804	1254.998657
4480.785280	0.089004	0.750804	1338.840332
4480.786210	0.088953	0.750804	1421.566284
4480.787106	0.089030	0.750804	1501.336792
4480.788026	0.088993	0.750804	1583.210327
4480.788966	0.088938	0.750804	1666.812012
4480.789886	0.089070	0.750804	1748.756226
4481.810387	0.864705	0.717087	384.793518
4481.811306	0.583788	0.717087	921.294556
4481.812194	0.096134	0.717087	1006.661560
4481.813133	0.088898	0.717087	1090.136475
4481.814060	0.088912	0.717087	1172.558228
4481.814985	0.088843	0.717087	1254.737793
4481.815878	0.088883	0.717087	1334.110352
4481.816822	0.088883	0.717087	1418.015991
4481.817719	0.088861	0.717087	1497.724365
4481.818635	0.088938	0.717087	1579.191528
4481.819532	0.088912	0.717087	1658.945923
4481.820493	0.088857	0.717087	1744.337891
4482.794490	0.877321	0.762926	423.745819
4482.795432	0.507297	0.762926	901.619873
4482.796358	0.092802	0.762926	987.554077
4482.797248	0.088861	0.762926	1066.640381
4482.798192	0.088806	0.762926	1150.473389
4482.799125	0.088737	0.762926	1233.264648
4482.800023	0.088927	0.762926	1313.121094
4482.800943	0.088854	0.762926	1394.866577
4482.801868	0.088843	0.762926	1477.046143
4482.802809	0.088909	0.762926	1560.709229
4482.803710	0.088846	0.762926	1640.759888
4482.804623	0.088792	0.762926	1721.826538
4483.828171	0.853107	0.718973	373.660736
4483.829067	0.607595	0.718973	918.066040
4483.830023	0.094684	0.718973	1008.583801
4483.830926	0.088784	0.718973	1088.755859
4483.831819	0.088909	0.718973	1168.151367
4483.832737	0.088879	0.718973	1249.742676
4483.833654	0.088828	0.718973	1331.198120
4483.834547	0.088887	0.718973	1410.573975
4483.835434	0.088868	0.718973	1489.400269
4483.836369	0.088975	0.718973	1572.591553
4483.837286	0.088898	0.718973	1654.110718
4483.838210	0.088905	0.718973	1736.258911
4484.810190	0.862529	0.759727	379.512878
4484.811176	0.517980	0.759727	890.240906
4484.812093	0.093347	0.759727	975.840271
4484.812983	0.088964	0.759727	1055.017944
4484.813910	0.089011	0.759727	1137.531372
4484.814855	0.088956	0.759727	1221.595093
4484.815774	0.088949	0.759727	1303.339233
4484.816659	0.088934	0.759727	1382.046143
4484.817598	0.088931	0.759727	1465.552002
4484.818538	0.088945	0.759727	1549.160645
4484.819440	0.089015	0.759727	1629.452026
4484.820341	0.089044	0.759727	1709.680786
4485.845978	0.868649	0.713462	385.679993
4485.846907	0.567437	0.713462	912.828491
4485.847811	0.095270	0.713462	998.952393
4485.848700	0.088967	0.713462	1078.044312
4485.849652	0.089128	0.713462	1162.894531
4485.850549	0.088975	0.713462	1242.704712
4485.851438	0.088975	0.713462	1321.803101
4485.852392	0.089073	0.713462	1406.779175
4485.853289	0.088938	0.713462	1486.556519
4485.854196	0.088931	0.713462	1567.216675
4485.855084	0.088964	0.713462	1646.216309
4485.856025	0.089070	0.713462	1730.031006
4486.826443	0.860973	0.758249	378.828064
4486.827408	0.539791	0.758249	899.726685
4486.828330	0.093486	0.758249	985.921082
4486.829226	0.088916	0.758249	1065.589844
4486.830144	0.088945	0.758249	1147.241699
4486.831079	0.088923	0.758249	1230.385010
4486.831996	0.088923	0.758249	1311.927734
4486.832884	0.088967	0.758249	1390.930664
4486.833817	0.088912	0.758249	1473.885864
4486.834744	0.088945	0.758249	1556.338135
4486.835665	0.088938	0.758249	1638.250000
4486.836551	0.088945	0.758249	1717.055542
